Timestamp (us),X (a.u.),Y (a.u.),Z (a.u.)
6020055135,-1.012792,0.138616,-0.615171
6020104980,-1.012877,0.129646,-0.605050
6020154820,-1.012811,0.138687,-0.605221
6020204657,-1.003731,0.129664,-0.594905
6020254487,-0.994635,0.129622,-0.594995
6020304317,-1.012877,0.129646,-0.605050
6020354149,-1.012792,0.138616,-0.615171
6020403990,-1.003746,0.138516,-0.625500
6020453830,-1.012905,0.129583,-0.615193
6020503661,-1.012940,0.120672,-0.594833
6020553497,-1.012805,0.129702,-0.594721
6020603330,-1.012882,0.129580,-0.615096
6020653158,-1.003830,0.120494,-0.614918
6020702993,-1.012859,0.129576,-0.615000
6020752827,-0.994635,0.129622,-0.594995
6020802652,-1.003871,0.120568,-0.605065
6020852478,-1.003875,0.120501,-0.615111
6020902300,-1.003673,0.138571,-0.615165
6020952121,-1.003758,0.129601,-0.605045
6021001947,-1.012832,0.129639,-0.604860
6021051775,-1.012877,0.129646,-0.605050
6021101606,-1.003808,0.129542,-0.615283
6021151434,-1.003785,0.129538,-0.615186
6021201262,-1.012742,0.138675,-0.604935
6021251092,-0.994627,0.138470,-0.625492
6021300924,-1.021857,0.138788,-0.594893
6021350757,-1.003673,0.138571,-0.615165
6021400586,-1.012882,0.129580,-0.615096
6021450414,-1.003696,0.138575,-0.615261
6021500238,-0.994596,0.138600,-0.605306
6021550066,-1.012955,0.129524,-0.625433
6021599898,-1.012815,0.138620,-0.615268
6021649727,-1.003769,0.138520,-0.625598
6021699561,-1.003486,0.156778,-0.595223
6021749386,-1.021911,0.138662,-0.615178
6021799210,-1.003836,0.129479,-0.625425
6021849035,-1.012905,0.129583,-0.615193
6021898857,-1.012975,0.120477,-0.625064
6021948685,-1.004000,0.102553,-0.594679
6021998512,-1.013290,0.093373,-0.625035
6022048338,-1.004221,0.093268,-0.635267
6022098156,-0.995277,0.075215,-0.625065
6022147975,-0.995281,0.075150,-0.635108
6022197781,-1.004373,0.075257,-0.624975
6022247603,-1.013402,0.084338,-0.625058
6022297423,-1.004167,0.093394,-0.614983
6022347241,-1.013138,0.111384,-0.635327
6022397062,-1.003742,0.138582,-0.615455
6022446889,-1.012609,0.156757,-0.605276
6022496712,-1.003410,0.174668,-0.625899
6022546536,-1.012130,0.202073,-0.585459
6022596363,-1.011695,0.238341,-0.565382
6022646192,-1.002315,0.256556,-0.535110
6022696018,-1.019822,0.320093,-0.505113
6022745847,-1.028487,0.347623,-0.444395
6022795677,-1.046628,0.347761,-0.434002
6022845500,-1.028141,0.374851,-0.424266
6022895321,-1.046310,0.366220,-0.373368
6022945148,-1.055597,0.339269,-0.352710
6022994981,-1.064695,0.330604,-0.301942
6023044813,-1.073710,0.330834,-0.271421
6023094640,-1.073580,0.331007,-0.240905
6023144461,-1.091514,0.349281,-0.220553
6023194287,-1.073143,0.358637,-0.160065
6023244108,-1.073127,0.349780,-0.129532
6023293925,-1.082153,0.341091,-0.078636
6023343736,-1.082442,0.314059,-0.068305
6023393553,-1.073241,0.314198,-0.037951
6023443367,-1.100833,0.278301,-0.017095
6023493190,-1.101031,0.242461,0.033919
6023543016,-1.092283,0.188639,0.105265
6023592841,-1.101878,0.143438,0.095596
6023642660,-1.111707,0.080035,0.065787
6023692475,-1.103202,-0.000902,0.137366
6023742303,-1.094535,-0.054914,0.178296
6023792130,-1.077148,-0.136330,0.178791
6023841957,-1.068473,-0.181494,0.189218
6023891784,-1.041869,-0.253792,0.209855
6023941620,-1.033019,-0.280942,0.209968
6023991441,-1.024168,-0.308090,0.210081
6024041267,-1.024258,-0.317126,0.210156
6024091091,-1.033633,-0.335294,0.190153
6024140918,-1.033906,-0.362463,0.180217
6024190744,-1.025316,-0.407872,0.150061
6024240566,-1.007715,-0.462301,0.130050
6024290388,-1.008107,-0.480823,0.059214
6024340211,-0.999509,-0.517381,-0.001421
6024390038,-0.981847,-0.545096,-0.082544
6024439862,-0.963982,-0.572470,-0.112906
6024489690,-0.946216,-0.599989,-0.163604
6024539522,-0.928317,-0.618450,-0.214314
6024589349,-0.928515,-0.627738,-0.254808
6024639181,-0.901487,-0.646126,-0.285356
6024689005,-0.892445,-0.646293,-0.305731
6024738829,-0.892532,-0.637594,-0.356637
6024788656,-0.901489,-0.619644,-0.387004
6024838486,-0.901329,-0.592784,-0.427799
6024888312,-0.909997,-0.538772,-0.468728
6024938136,-0.918987,-0.511997,-0.529717
6024987955,-0.900801,-0.512134,-0.539953
6025037790,-0.918723,-0.467198,-0.591040
6025137442,-0.944846,-0.340798,-0.632296
6025187271,-0.935356,-0.295781,-0.653046
6025237089,-0.935052,-0.259759,-0.673631
6025286909,-0.943901,-0.232610,-0.673871
6025336729,-0.952550,-0.187382,-0.674156
6025386549,-0.961315,-0.151255,-0.684510
6025436368,-0.969936,-0.105965,-0.674651
6025486192,-0.978916,-0.096823,-0.664492
6025536014,-0.987722,-0.069669,-0.664523
6025585841,-0.987242,-0.024358,-0.644715
6025635662,-1.005022,0.011999,-0.624547
6025685491,-1.022663,0.057455,-0.594217
6025735313,-1.004677,0.039235,-0.604390
6025785142,-1.032012,0.021536,-0.563311
6025834961,-1.050147,0.021809,-0.532793
6025884782,-1.049660,0.075971,-0.543472
6025934605,-1.040478,0.084901,-0.553693
6025984430,-1.031382,0.084859,-0.553783
6026034255,-1.040591,0.075866,-0.553706
6026084077,-1.031553,0.075633,-0.584135
6026133905,-1.031720,0.066473,-0.604440
6026183732,-0.977637,0.038479,-0.705974
6026233556,-0.950794,0.019716,-0.797485
6026283379,-0.915207,-0.052935,-0.827672
6026333207,-0.853199,-0.207228,-0.887745
6026383026,-0.763163,-0.280384,-0.959179
6026432843,-0.789806,-0.225786,-0.918790
6026482667,-0.842849,-0.080755,-0.888886
6026532484,-0.878421,0.000806,-0.879195
6026582305,-0.922687,0.092073,-0.767811
6026632120,-0.993494,0.247106,-0.596064
6026681948,-1.019226,0.374512,-0.475213
6026731763,-1.027907,0.384346,-0.353473
6026781590,-1.092008,0.304183,-0.210153
6026831410,-1.091740,0.304741,-0.118834
6026881231,-1.110282,0.277525,-0.148855
6026931057,-1.130583,0.043215,-0.055458
6026980886,-1.104884,-0.154847,0.087936
6027030714,-1.060746,-0.290612,0.088611
6027080547,-1.051634,-0.299498,0.119018
6027130378,-1.042744,-0.317677,0.108935
6027180210,-1.043607,-0.381388,0.038459
6027230032,-1.017295,-0.463336,-0.042269
6027279862,-1.008234,-0.472289,-0.021999
6027329679,-1.061397,-0.292122,-0.154840
6027379495,-1.096494,-0.129979,-0.267459
6027429315,-1.096301,-0.147357,-0.155619
6027479136,-1.078497,-0.218921,-0.023380
6027528959,-1.087910,-0.245997,-0.023087
6027578789,-1.114065,-0.128511,-0.044068
6027628615,-1.113090,-0.038015,-0.024520
6027678443,-1.121449,0.025602,0.025752
6027728268,-1.112051,0.034971,0.086440
6027778090,-1.102874,0.035117,0.116772
6027827925,-1.129821,0.106790,-0.005265
6027877752,-1.130724,0.069318,-0.217944
6027927579,-1.112417,0.104817,-0.309706
6027977417,-1.092358,0.303436,-0.331933
6028027249,-1.036633,0.438160,-0.424770
6028077082,-1.000466,0.437490,-0.506270
6028126915,-1.001166,0.382891,-0.566673
6028176750,-0.993173,0.292117,-0.627063
6028226584,-0.984914,0.210608,-0.646667
6028276415,-0.966561,0.237385,-0.687648
6028326241,-0.995304,0.075152,-0.635207
6028376071,-0.979450,-0.142258,-0.704582
6028425906,-0.898387,-0.197424,-0.796348
6028475734,-0.897435,-0.098140,-0.817335
6028525564,-0.923777,-0.016304,-0.757003
6028575384,-0.950314,0.047266,-0.726601
6028625215,-0.959082,0.074609,-0.696422
6028675045,-0.995627,0.047916,-0.655267
6028724881,-1.022896,0.039255,-0.614352
6028774722,-1.013481,0.066385,-0.604430
6028824559,-1.013388,0.075487,-0.594458
6028874394,-1.013258,0.093501,-0.604845
6028924227,-1.013306,0.084393,-0.614624
6028974066,-1.004247,0.084488,-0.594810
6029023896,-1.013392,0.075422,-0.604505
6029073731,-1.022588,0.075343,-0.624892
6029123561,-1.004395,0.075260,-0.625073
6029173393,-1.004490,0.066157,-0.635042
6029223225,-1.004400,0.075194,-0.635117
6029273061,-0.986302,0.066009,-0.645264
6029322891,-0.995529,0.065801,-0.685844
6029422549,-0.986266,0.074920,-0.665621
6029472383,-0.995502,0.065864,-0.675702
6029522214,-0.977319,0.065650,-0.695950
