Timestamp (us),X (a.u.),Y (a.u.),Z (a.u.)
9953976209,-0.955976,0.422081,-0.588314
9954026578,-0.956092,0.422618,-0.557976
9954076941,-0.965211,0.431500,-0.568025
9954127303,-0.955961,0.440787,-0.568121
9954177665,-0.946821,0.422379,-0.578368
9954228037,-0.965285,0.422499,-0.557812
9954278394,-0.965327,0.403967,-0.567806
9954328751,-0.946837,0.422547,-0.568084
9954379106,-0.955992,0.422250,-0.578029
9954429467,-0.965207,0.422141,-0.578035
9954479832,-0.946680,0.440543,-0.588422
9954530195,-0.937413,0.449662,-0.598802
9954580563,-0.937333,0.468014,-0.598915
9954630936,-0.918890,0.477420,-0.599177
9954681305,-0.891125,0.505112,-0.609741
9954731666,-0.900335,0.495648,-0.619760
9954782046,-0.900437,0.486820,-0.599350
9954832400,-0.918750,0.467514,-0.639326
9954882767,-0.918886,0.468062,-0.609186
9954933127,-0.937353,0.449472,-0.608732
9954983490,-0.918941,0.440341,-0.618901
9955033859,-0.946661,0.421822,-0.608349
9955084225,-0.937373,0.430930,-0.618547
9955134590,-0.937534,0.422293,-0.588212
9955184955,-0.946607,0.412281,-0.628371
9955235320,-0.937526,0.403578,-0.608227
9955285687,-0.946685,0.412638,-0.608157
9955336055,-0.937481,0.412752,-0.608237
9955436782,-0.937477,0.403394,-0.618243
9955487149,-0.956024,0.394521,-0.587573
9955537512,-0.937414,0.412399,-0.628545
9955587879,-0.946653,0.403106,-0.628363
9955638245,-0.937569,0.413114,-0.588111
9955688615,-0.955958,0.394168,-0.607874
9955738983,-0.946726,0.394107,-0.618154
9955789350,-0.937476,0.375326,-0.648357
9955839722,-0.946796,0.375749,-0.617952
9955890094,-0.937480,0.384683,-0.638350
9955940458,-0.937437,0.375147,-0.658466
9955990827,-0.928268,0.366082,-0.658445
9956041185,-0.919133,0.366385,-0.648706
9956091546,-0.928225,0.356545,-0.678561
9956141910,-0.919049,0.356834,-0.668433
9956192268,-0.928268,0.366082,-0.658445
9956242629,-0.919098,0.357016,-0.658424
9956292997,-0.928260,0.347366,-0.678460
9956343364,-0.919015,0.366013,-0.668535
9956393733,-0.909943,0.357312,-0.648493
9956444097,-0.891199,0.384003,-0.709616
9956494462,-0.863513,0.393343,-0.720068
9956544823,-0.844924,0.420750,-0.740752
9956595184,-0.807895,0.466920,-0.751689
9956645543,-0.761624,0.513025,-0.772817
9956695902,-0.743104,0.522073,-0.793298
9956746255,-0.724591,0.549837,-0.793763
9956796620,-0.715395,0.568667,-0.773825
9956846985,-0.752329,0.587457,-0.723050
9956897352,-0.770865,0.615840,-0.662542
9956947719,-0.789188,0.652526,-0.652870
9956998085,-0.770852,0.625045,-0.662937
9957048445,-0.752251,0.643085,-0.693536
9957098808,-0.761548,0.662055,-0.653309
9957149167,-0.780000,0.708777,-0.592801
9957199534,-0.798498,0.718277,-0.562495
9957249900,-0.835578,0.700359,-0.511414
9957300263,-0.900428,0.664111,-0.439733
9957350624,-0.946807,0.646596,-0.358118
9957400994,-0.974759,0.657213,-0.256839
9957451369,-0.984087,0.676352,-0.206418
9957501744,-1.002711,0.667830,-0.155589
9957552110,-1.003053,0.659936,-0.084783
9957602477,-1.030804,0.650795,-0.064241
9957652850,-1.040103,0.632639,-0.043695
9957703219,-1.068050,0.605835,0.017500
9957753603,-1.077527,0.578910,0.058324
9957803978,-1.096175,0.542495,0.089209
9957854352,-1.105728,0.478503,0.110241
9957904713,-1.133677,0.395723,0.121489
9957955079,-1.170754,0.321832,0.122604
9958005444,-1.180198,0.266652,0.123321
9958055807,-1.198774,0.192630,0.104044
9958106164,-1.208156,0.118550,0.074616
9958156529,-1.208205,0.053402,0.024774
9958206892,-1.189773,-0.002518,-0.035440
9958257260,-1.189645,-0.031129,-0.095796
9958307621,-1.180374,-0.059264,-0.135989
9958357983,-1.180335,-0.096879,-0.186158
9958408341,-1.161764,-0.116083,-0.246776
9958509064,-1.115045,-0.090657,-0.399069
9958559430,-1.105670,-0.082279,-0.450067
9958609792,-1.086943,-0.064569,-0.500698
9958660158,-1.059034,-0.037587,-0.551785
9958710533,-1.031125,-0.010604,-0.602872
9958760904,-1.003374,0.026452,-0.603518
9958811272,-0.993812,0.062205,-0.664753
9958861641,-0.965976,0.108263,-0.675509
9958912007,-0.965698,0.153619,-0.706445
9958962371,-0.947225,0.181562,-0.696799
9959012738,-0.937788,0.217856,-0.727830
9959063108,-0.910176,0.246271,-0.697932
9959113480,-0.910076,0.283166,-0.688225
9959163846,-0.909909,0.319707,-0.698845
9959214212,-0.919115,0.347665,-0.668630
9959264576,-0.928250,0.365910,-0.668752
9959314951,-0.909856,0.375499,-0.659000
9959365318,-0.909745,0.412391,-0.649196
9959415674,-0.918909,0.430810,-0.639111
9959466037,-0.918785,0.476889,-0.629601
9959516409,-0.891054,0.495403,-0.640060
9959566780,-0.891062,0.514119,-0.620043
9959617147,-0.891088,0.551558,-0.580094
9959667511,-0.872496,0.597673,-0.580674
9959717876,-0.844750,0.625381,-0.591416
9959768244,-0.844638,0.634202,-0.611740
9959818609,-0.798602,0.672033,-0.582298
9959868976,-0.770769,0.718081,-0.593070
9959919345,-0.743025,0.773854,-0.573695
9960020083,-0.641482,0.895149,-0.535448
9960070443,-0.576936,0.979468,-0.486435
9960120811,-0.494006,1.045443,-0.447349
9960171181,-0.392658,1.083607,-0.438591
9960221552,-0.291351,1.121892,-0.419530
9960271934,-0.208483,1.160208,-0.390442
9960322312,-0.125695,1.180104,-0.360976
9960372701,-0.033667,1.199935,-0.341709
9960423089,0.039872,1.192065,-0.322125
9960473485,0.076802,1.201340,-0.342773
9960523881,0.085843,1.202148,-0.302358
9960574268,0.039812,1.201559,-0.301912
9960624663,-0.070758,1.210091,-0.260609
9960675057,-0.181272,1.199771,-0.249507
9960725457,-0.310199,1.161086,-0.268164
9960775849,-0.448394,1.103930,-0.286532
9960826238,-0.577305,1.046550,-0.325241
9960876632,-0.715631,0.924641,-0.373326
9960927031,-0.789484,0.803330,-0.432037
9960977429,-0.881810,0.672781,-0.480303
9961027821,-0.918776,0.570284,-0.539529
9961078213,-0.946572,0.458722,-0.598734
9961128602,-0.937539,0.356800,-0.658557
9961178987,-0.928560,0.255224,-0.697976
9961229368,-0.910298,0.172122,-0.737569
9961279752,-0.910319,0.106792,-0.797648
9961330140,-0.873803,0.024635,-0.796940
9961380528,-0.837263,-0.048344,-0.796452
9961430921,-0.837320,-0.094777,-0.826281
9961481313,-0.828216,-0.131559,-0.836068
9961531711,-0.819250,-0.186334,-0.825308
9961582109,-0.810176,-0.222928,-0.824861
9961632510,-0.828640,-0.222993,-0.814834
9961682912,-0.838033,-0.231570,-0.774207
9961733313,-0.856411,-0.213260,-0.764137
9961783717,-0.874707,-0.185942,-0.764166
9961834108,-0.902538,-0.194769,-0.723708
9961884496,-0.948721,-0.185262,-0.672836
9961934881,-0.985705,-0.194165,-0.631766
9961985269,-0.995056,-0.184197,-0.581142
9962035652,-1.031820,-0.128861,-0.540988
9962086041,-1.059464,-0.054339,-0.460677
9962136431,-1.114628,-0.008399,-0.420068
9962186822,-1.114652,0.038201,-0.380326
9962237212,-1.133019,0.065871,-0.360194
9962287602,-1.123819,0.075342,-0.350267
9962337996,-1.133080,0.084764,-0.330122
9962388388,-1.114469,0.093456,-0.370766
9962438788,-1.114560,0.093812,-0.350603
9962489184,-1.114403,0.121171,-0.360961
9962539580,-1.114375,0.111633,-0.381135
9962589973,-1.104979,0.148284,-0.391671
9962640360,-1.104788,0.184820,-0.402122
9962690744,-1.086138,0.249297,-0.402991
9962741128,-1.067648,0.295778,-0.383502
9962791510,-1.067496,0.332490,-0.383848
9962841898,-1.085948,0.313730,-0.393652
9962892281,-1.067243,0.340599,-0.444658
9962942662,-1.020891,0.405056,-0.465915
9962993047,-0.983624,0.459502,-0.527406
9963043442,-0.946511,0.495796,-0.578919
9963093830,-0.872463,0.541518,-0.640632
9963144227,-0.779918,0.624368,-0.692888
9963194613,-0.705997,0.670634,-0.724362
9963244999,-0.650512,0.679430,-0.785711
9963295384,-0.567451,0.707442,-0.816948
9963345767,-0.493565,0.744529,-0.848320
9963396151,-0.410621,0.763741,-0.859480
9963446535,-0.345940,0.800691,-0.890516
9963496920,-0.281480,0.820035,-0.881303
9963547304,-0.235403,0.867033,-0.851885
9963597688,-0.244650,0.876456,-0.831688
9963648074,-0.272428,0.904904,-0.760991
9963698453,-0.327625,0.932117,-0.740596
9963748833,-0.382996,0.913436,-0.719695
9963799214,-0.484413,0.866293,-0.718305
9963849595,-0.567387,0.828556,-0.717178
9963899975,-0.632054,0.744805,-0.736030
9963950362,-0.696741,0.651844,-0.754454
9964000744,-0.789198,0.549923,-0.742431
9964051125,-0.807856,0.485451,-0.741672
9964101510,-0.826499,0.402257,-0.760818
9964151890,-0.835886,0.328350,-0.779915
9964202270,-0.882300,0.217463,-0.788639
9964252645,-0.901325,0.061377,-0.776535
9964303024,-0.892620,-0.057658,-0.765307
9964353407,-0.939330,-0.157761,-0.682925
9964403784,-1.004371,-0.230368,-0.590488
9964454163,-1.013546,-0.174708,-0.550753
9964504538,-1.050452,-0.146731,-0.500185
9964554912,-1.087452,-0.136926,-0.439238
9964605301,-1.096731,-0.118157,-0.409160
9964655678,-1.096621,-0.127861,-0.439259
9964706057,-1.068766,-0.128785,-0.510414
9964756442,-1.059259,-0.111190,-0.561000
9964806819,-1.003870,-0.139297,-0.631928
9964857205,-0.957564,-0.140174,-0.713399
9964907583,-0.920517,-0.112713,-0.744243
9964957967,-0.883300,-0.058081,-0.795713
9965008345,-0.855507,-0.030561,-0.816475
9965058722,-0.855303,0.033869,-0.807074
9965109103,-0.864130,0.144080,-0.798099
9965159483,-0.872943,0.310259,-0.739188
9965209864,-0.909680,0.440107,-0.639388
9965260245,-0.937356,0.505605,-0.548525
9965310631,-0.974402,0.543489,-0.457795
9965361018,-0.992946,0.590588,-0.377272
9965411398,-0.983604,0.627416,-0.377757
9965461782,-0.983754,0.618774,-0.347331
9965512170,-0.983851,0.637857,-0.307146
9965562561,-0.993129,0.628744,-0.296854
9965663332,-0.993078,0.628555,-0.306917
9965713710,-0.992913,0.637038,-0.347558
9965764085,-0.946507,0.654671,-0.418690
9965814486,-0.900111,0.625397,-0.550324
9965864869,-0.835354,0.577972,-0.681792
9965915250,-0.780105,0.485088,-0.782578
9965965644,-0.743298,0.420214,-0.842860
9966016024,-0.734158,0.373898,-0.872897
9966066418,-0.725047,0.337112,-0.882556
9966116803,-0.734279,0.327817,-0.882244
9966167188,-0.771215,0.318544,-0.861729
9966217574,-0.817357,0.327872,-0.820983
9966267960,-0.835919,0.347073,-0.760243
9966318340,-0.881970,0.393299,-0.709903
9966368718,-0.891302,0.421797,-0.649458
9966419100,-0.909684,0.449466,-0.629377
9966469484,-0.900307,0.495475,-0.629963
9966519870,-0.881642,0.550591,-0.640747
9966570259,-0.854020,0.597551,-0.601144
9966620648,-0.835558,0.653569,-0.561465
9966671038,-0.835427,0.709001,-0.541849
9966721424,-0.816992,0.737124,-0.522091
9966771809,-0.789155,0.792515,-0.522784
9966822194,-0.780056,0.802382,-0.492859
9966922963,-0.743114,0.858285,-0.473632
9966973350,-0.743143,0.867794,-0.453370
9967023735,-0.743203,0.877466,-0.422948
9967074124,-0.770826,0.867797,-0.432841
9967124507,-0.780215,0.849862,-0.402229
9967174893,-0.826448,0.803578,-0.391212
9967225274,-0.854252,0.757367,-0.390582
9967275651,-0.909665,0.673524,-0.419465
9967326042,-0.955847,0.598986,-0.448589
9967376430,-0.983680,0.571645,-0.417710
9967426816,-0.992954,0.553173,-0.417427
9967477198,-0.993015,0.516098,-0.437246
9967527582,-1.002266,0.506812,-0.437130
