Timestamp (us),X (a.u.),Y (a.u.),Z (a.u.)
8950812942,-0.823684,-0.044377,-0.835454
8950862799,-0.823622,-0.035407,-0.845634
8950912661,-0.823711,-0.044440,-0.845558
8950962527,-0.832640,-0.035241,-0.825208
8951012384,-0.832729,-0.044273,-0.825133
8951062249,-0.823638,-0.044314,-0.825223
8951112110,-0.823665,-0.044377,-0.835326
8951161962,-0.832830,-0.044461,-0.855573
8951211816,-0.823684,-0.044377,-0.835454
8951261670,-0.832667,-0.035303,-0.835311
8951311513,-0.832659,-0.035240,-0.825335
8951361363,-0.823432,-0.026187,-0.815271
8951411218,-0.841607,-0.026041,-0.805111
8951461075,-0.850547,-0.007998,-0.815275
8951510920,-0.850224,0.019225,-0.795291
8951560765,-0.841144,0.028029,-0.825896
8951610610,-0.832149,0.018891,-0.835889
8951660459,-0.841275,0.018806,-0.855877
8951710316,-0.823030,0.027692,-0.866235
8951760171,-0.814280,0.000430,-0.886441
8951810025,-0.805403,-0.017802,-0.906452
8951859880,-0.787347,-0.026917,-0.906833
8951909734,-0.814595,-0.026729,-0.896457
8951959590,-0.787293,-0.026792,-0.886622
8952009447,-0.796420,-0.026876,-0.906605
8952059290,-0.787445,-0.036012,-0.916724
8952109148,-0.796349,-0.017843,-0.906818
8952159006,-0.805495,-0.026708,-0.886577
8952208855,-0.805457,-0.026709,-0.886306
8952258711,-0.805314,-0.017551,-0.866172
8952308554,-0.805322,-0.017614,-0.876143
8952358411,-0.823505,-0.017531,-0.875963
8952408270,-0.814495,-0.026542,-0.866007
8952458125,-0.814422,-0.026417,-0.845669
8952507982,-0.814259,-0.008479,-0.865761
8952557842,-0.814405,-0.017510,-0.866082
8952607692,-0.823432,-0.017406,-0.855626
8952657541,-0.805249,-0.017490,-0.855807
8952707392,-0.814278,-0.008479,-0.865893
8952757245,-0.805108,0.000576,-0.856218
8952807093,-0.823361,-0.008374,-0.855832
8952856940,-0.814197,0.000490,-0.875936
8952906791,-0.805233,-0.008582,-0.876218
8952956642,-0.805099,0.009420,-0.886606
8953006489,-0.786916,0.009337,-0.886787
8953056339,-0.777906,0.009108,-0.917190
8953106186,-0.787069,0.000116,-0.916885
8953156036,-0.778129,-0.017927,-0.906722
8953205884,-0.787516,-0.045044,-0.916510
8953255734,-0.778792,-0.081276,-0.926262
8953305585,-0.752252,-0.153659,-0.926073
8953355433,-0.734625,-0.199153,-0.966290
8953405284,-0.689689,-0.253550,-0.966144
8953455131,-0.672284,-0.317175,-1.016460
8953504982,-0.618319,-0.362898,-1.067140
8953554841,-0.564300,-0.408497,-1.097615
8953604683,-0.501087,-0.445096,-1.128085
8953654529,-0.401649,-0.499808,-1.138728
8953704372,-0.347784,-0.554573,-1.189504
8953754228,-0.266277,-0.582158,-1.210115
8953804072,-0.175501,-0.582887,-1.261523
8953853923,-0.093802,-0.592367,-1.272552
8953903777,-0.002968,-0.592960,-1.303567
8953953626,0.096989,-0.584699,-1.355141
8954003475,0.188230,-0.549039,-1.366241
8954053329,0.279875,-0.459522,-1.428705
8954103183,0.344586,-0.351430,-1.430236
8954153040,0.373036,-0.225299,-1.462078
8954202891,0.365470,-0.062867,-1.493426
8954252739,0.357928,0.090780,-1.484510
8954302591,0.313304,0.172338,-1.474633
8954352433,0.250237,0.226899,-1.465001
8954402281,0.186915,0.254391,-1.443527
8954452125,0.105328,0.272960,-1.422877
8954501967,0.041753,0.282220,-1.432422
8954551818,-0.012716,0.282664,-1.401785
8954601668,-0.031131,0.264558,-1.421660
8954651510,-0.058490,0.255645,-1.421104
8954701364,-0.085831,0.246806,-1.410866
8954751210,-0.104039,0.237972,-1.389992
8954801056,-0.149747,0.211156,-1.379627
8954850911,-0.213613,0.184406,-1.368260
8954900763,-0.277651,0.139666,-1.347255
8954950615,-0.332654,0.085912,-1.315959
8955000469,-0.360526,0.022876,-1.305062
8955050318,-0.388451,-0.049129,-1.283797
8955100168,-0.398752,-0.175410,-1.262645
8955150022,-0.390531,-0.256868,-1.282455
8955199875,-0.345681,-0.320290,-1.281997
8955249740,-0.309890,-0.374716,-1.292201
8955299607,-0.273643,-0.383977,-1.302588
8955349465,-0.246583,-0.402236,-1.313006
8955399325,-0.183177,-0.420717,-1.333693
8955449199,-0.146708,-0.402999,-1.364309
8955499047,-0.083070,-0.403290,-1.364940
8955548906,-0.082709,-0.358325,-1.395827
8955598765,-0.073076,-0.304169,-1.396160
8955648619,-0.109091,-0.276718,-1.365720
8955698481,-0.190892,-0.285125,-1.324427
8955748342,-0.236239,-0.275828,-1.314147
8955798198,-0.300289,-0.329422,-1.262740
8955848054,-0.346173,-0.383199,-1.230972
8955897915,-0.382699,-0.401041,-1.220544
8955947766,-0.392148,-0.437127,-1.220154
8955997623,-0.356052,-0.464389,-1.220290
8956047472,-0.301774,-0.482899,-1.251172
8956097322,-0.256524,-0.501234,-1.261576
8956147169,-0.202210,-0.528508,-1.251602
8956197034,-0.166029,-0.537914,-1.282575
8956246882,-0.102397,-0.529404,-1.323303
8956296742,-0.056655,-0.502472,-1.314270
8956346597,-0.038592,-0.511660,-1.324678
8956396448,-0.084049,-0.520277,-1.293448
8956446303,-0.166243,-0.564886,-1.262142
8956496160,-0.174756,-0.501734,-1.282593
8956546013,-0.210924,-0.492285,-1.241896
8956595865,-0.265472,-0.500870,-1.210790
8956645724,-0.274912,-0.536946,-1.210218
8956695573,-0.274902,-0.536904,-1.200478
8956745426,-0.274769,-0.518955,-1.220651
8956795279,-0.283779,-0.518726,-1.190257
8956845130,-0.284110,-0.545957,-1.210416
8956894983,-0.256855,-0.546134,-1.220606
8956944834,-0.220428,-0.537331,-1.231143
8956994689,-0.184153,-0.546530,-1.231429
8957044547,-0.166150,-0.564677,-1.231459
8957094406,-0.084380,-0.556343,-1.283045
8957144265,-0.011641,-0.547831,-1.314150
8957194118,0.024941,-0.521017,-1.334742
8957243970,0.097615,-0.521475,-1.355666
8957293824,0.143071,-0.521693,-1.356319
8957343676,0.161191,-0.530756,-1.346522
8957393521,0.115610,-0.548466,-1.325317
8957443371,-0.002979,-0.601815,-1.273378
8957493222,-0.139842,-0.672934,-1.190424
8957543072,-0.194023,-0.627713,-1.220562
8957592928,-0.238665,-0.546207,-1.220604
8957642790,-0.265642,-0.510090,-1.241019
8957692641,-0.292728,-0.491892,-1.240713
8957742493,-0.328769,-0.464505,-1.220377
8957792349,-0.346791,-0.446375,-1.220713
8957842203,-0.383203,-0.455124,-1.200252
8957892057,-0.419235,-0.427728,-1.179730
8957941914,-0.446213,-0.400444,-1.169582
8957991763,-0.491347,-0.373014,-1.149151
8958041616,-0.536369,-0.327702,-1.159003
8958091470,-0.563155,-0.282297,-1.139077
8958141322,-0.589859,-0.236758,-1.098604
8958191178,-0.598413,-0.182524,-1.098964
8958241036,-0.616046,-0.128189,-1.089297
8958290894,-0.615396,-0.056119,-1.120037
8958340747,-0.605694,0.007064,-1.120821
8958390602,-0.559871,0.051828,-1.151955
8958440455,-0.541384,0.087748,-1.172642
8958490305,-0.504434,0.150678,-1.193554
8958540162,-0.494985,0.186764,-1.193945
8958590011,-0.513037,0.196009,-1.173812
8958639871,-0.486175,0.159630,-1.193989
8958689721,-0.467393,0.222709,-1.204797
8958739567,-0.439481,0.285803,-1.205412
8958789424,-0.402696,0.330734,-1.216250
8958839280,-0.366127,0.357546,-1.237223
8958889127,-0.320484,0.384246,-1.268207
8958938979,-0.256712,0.401885,-1.289002
8958988824,-0.202185,0.401565,-1.299451
8959038669,-0.147753,0.401073,-1.340591
8959088522,-0.084053,0.409751,-1.351399
8959138381,-0.056686,0.418649,-1.351544
8959188235,-0.057993,0.300936,-1.401484
8959238092,0.014677,0.291628,-1.391821
8959287949,0.024045,0.327526,-1.422516
8959337806,0.051820,0.372686,-1.402959
8959387660,0.106662,0.399595,-1.393623
8959437514,0.143000,0.399366,-1.404085
8959537225,0.288189,0.371604,-1.405303
8959587064,0.351558,0.344217,-1.405709
8959636915,0.423875,0.307631,-1.426333
8959686772,0.505006,0.235064,-1.416443
8959736629,0.540970,0.198699,-1.426183
8959786490,0.586308,0.180557,-1.406494
8959836344,0.605035,0.234669,-1.407333
8959886206,0.550998,0.280210,-1.387169
8959936065,0.460473,0.325654,-1.406641
8959985924,0.352122,0.398472,-1.396058
8960035787,0.289314,0.480103,-1.385795
8960085635,0.225296,0.444223,-1.395377
8960135495,0.142785,0.372395,-1.383657
8960185355,0.078736,0.336433,-1.402929
8960235223,0.033101,0.318578,-1.402328
8960285082,-0.021508,0.309858,-1.391611
8960334935,-0.048898,0.300888,-1.401366
8960384796,-0.085624,0.256077,-1.370123
8960434656,-0.103887,0.255973,-1.400242
8960484519,-0.094885,0.246899,-1.400257
8960534376,-0.085947,0.228857,-1.390098
8960584245,-0.086068,0.219767,-1.400331
8960634100,-0.067975,0.210652,-1.400436
8960683958,-0.095270,0.210710,-1.410057
8960733822,-0.113921,0.165649,-1.410340
8960833545,-0.086985,0.129382,-1.409472
8960883403,-0.086363,0.192609,-1.410207
8960933258,-0.085978,0.228799,-1.400406
8960983123,-0.104012,0.238034,-1.379892
8961032983,-0.121576,0.292496,-1.349862
8961082841,-0.130466,0.310670,-1.340021
8961132703,-0.175743,0.328942,-1.339721
8961182557,-0.220992,0.347277,-1.329319
8961232413,-0.275368,0.356746,-1.298548
8961332120,-0.357349,0.330275,-1.257106
8961381975,-0.411839,0.321799,-1.205803
8961481678,-0.512151,0.277411,-1.153936
8961531533,-0.566768,0.259847,-1.112845
8961581385,-0.612577,0.215152,-1.071781
8961631246,-0.649079,0.179620,-1.000108
8961681104,-0.685743,0.152700,-0.999824
8961730959,-0.713230,0.125854,-0.979126
8961780806,-0.749540,0.117367,-0.918221
8961830651,-0.767927,0.081633,-0.867094
8961930352,-0.858774,0.064548,-0.775130
8961980196,-0.858990,0.028798,-0.714331
8962030037,-0.895358,0.011211,-0.663100
8962079880,-0.904774,-0.024749,-0.642610
8962129720,-0.914115,-0.060584,-0.601814
8962179559,-0.905211,-0.087534,-0.571375
8962229404,-0.905781,-0.141849,-0.591035
8962279246,-0.924020,-0.150674,-0.570669
8962329085,-0.914985,-0.159625,-0.550569
8962378916,-0.914997,-0.159746,-0.570595
8962478595,-0.932892,-0.141349,-0.530165
8962528439,-0.932775,-0.132254,-0.520140
8962578277,-0.941723,-0.123056,-0.499925
8962628117,-0.959832,-0.113880,-0.489876
8962677958,-0.950315,-0.086512,-0.439606
8962727792,-0.941141,-0.077584,-0.449800
8962777625,-0.949990,-0.050510,-0.460035
8962827465,-0.959099,-0.041687,-0.500419
8962877302,-0.940882,-0.032863,-0.520875
8962927145,-0.923021,-0.042416,-0.591865
8962976994,-0.913969,-0.033676,-0.632541
8963026837,-0.895887,-0.034136,-0.693025
8963076688,-0.887103,-0.052491,-0.733478
8963126528,-0.869188,-0.070889,-0.773795
8963176372,-0.860151,-0.071055,-0.794085
8963226214,-0.842050,-0.071326,-0.824565
8963276052,-0.832780,-0.053304,-0.824806
8963325891,-0.832861,-0.053492,-0.855105
8963375723,-0.823692,-0.044440,-0.845429
8963425560,-0.823521,-0.026438,-0.855551
8963475390,-0.823494,-0.026376,-0.845450
8963525225,-0.814243,-0.008353,-0.845819
8963575056,-0.823315,-0.008312,-0.845600
8963624886,-0.823180,0.000782,-0.835446
8963674719,-0.822930,0.027879,-0.835799
8963724555,-0.841175,0.018992,-0.825442
8963774388,-0.841148,0.019055,-0.815340
8963824224,-0.841110,0.010272,-0.774741
8963874061,-0.850185,0.019222,-0.795047
8963923891,-0.859319,0.010293,-0.784660
8963973727,-0.868402,0.010398,-0.774589
8964023566,-0.868375,0.010461,-0.764488
8964073413,-0.877412,0.010628,-0.744195
8964123256,-0.877522,0.001597,-0.744234
8964173107,-0.877439,0.010565,-0.754296
8964222965,-0.877495,0.001660,-0.734132
8964272808,-0.877502,0.001596,-0.744120
8964322654,-0.877358,0.010753,-0.723992
8964372503,-0.877495,0.001660,-0.734132
8964422352,-0.877399,0.010756,-0.724216
8964472209,-0.886477,0.010732,-0.734003
8964522059,-0.886512,0.001825,-0.713725
8964571910,-0.877304,0.010878,-0.703789
8964621760,-0.886423,0.010857,-0.713800
8964671618,-0.877428,0.001720,-0.723805
8964721473,-0.886239,0.020012,-0.693458
8964771326,-0.886450,0.010795,-0.723902
8964821189,-0.886375,0.010919,-0.703590
8964871044,-0.886430,0.010794,-0.723790
8964920899,-0.877304,0.010878,-0.703789
8964970753,-0.886396,0.010920,-0.703699
8965020610,-0.877311,0.010815,-0.713780
8965070466,-0.877475,0.001659,-0.734018
8965170177,-0.877277,0.010941,-0.693688
8965220025,-0.877304,0.010878,-0.703789
8965269877,-0.877441,0.001785,-0.713926
8965369585,-0.886465,0.001887,-0.703515
