Timestamp (us),X (a.u.),Y (a.u.),Z (a.u.)
1067686826,-0.539675,0.558091,-0.923329
1067737307,-0.539669,0.548747,-0.933058
1067787785,-0.567374,0.530445,-0.912821
1067838261,-0.558151,0.539713,-0.912870
1067888745,-0.548968,0.539833,-0.913083
1067939223,-0.567270,0.557927,-0.913124
1067989699,-0.548896,0.558147,-0.913152
1068040181,-0.539722,0.567618,-0.903763
1068090666,-0.530493,0.567541,-0.913546
1068141147,-0.548865,0.576644,-0.903391
1068191626,-0.548938,0.567660,-0.893327
1068242107,-0.558126,0.567554,-0.893376
1068292592,-0.558013,0.585684,-0.903281
1068343068,-0.539716,0.558274,-0.913497
1068393550,-0.548792,0.585628,-0.913455
1068444034,-0.539612,0.585756,-0.913800
1068494516,-0.539679,0.576758,-0.903471
1068544999,-0.548868,0.576651,-0.903522
1068595475,-0.539578,0.604247,-0.903905
1068645960,-0.521170,0.613626,-0.904036
1068696446,-0.530329,0.632026,-0.894453
1068746928,-0.521145,0.641468,-0.884540
1068797408,-0.502737,0.650847,-0.884674
1068847896,-0.502668,0.669168,-0.884875
1068898370,-0.511853,0.669055,-0.884795
1068948852,-0.484369,0.651091,-0.885090
1068999324,-0.475147,0.660356,-0.885143
1069049797,-0.475085,0.697351,-0.865618
1069100277,-0.456556,0.687526,-0.915367
1069150748,-0.410660,0.669596,-0.925529
1069201216,-0.383117,0.707293,-0.886449
1069251695,-0.373939,0.828610,-0.768268
1069302171,-0.328155,1.016286,-0.551548
1069352647,-0.356013,1.101178,-0.392647
1069403126,-0.466346,1.072373,-0.391497
1069453608,-0.669203,0.970891,-0.289006
1069504082,-0.927763,0.740975,-0.154638
1069605030,-1.169760,0.193493,0.142498
1069705984,-1.189029,-0.091598,0.095975
1069756459,-1.189208,-0.221260,0.017661
1069806932,-1.170499,-0.287605,-0.121253
1069857414,-1.133364,-0.298444,-0.241088
1069907890,-1.105052,-0.245602,-0.381380
1069958367,-1.095071,-0.137326,-0.482302
1070008845,-1.057628,-0.046851,-0.573215
1070059327,-1.001708,0.071144,-0.674823
1070109806,-0.964292,0.245475,-0.687227
1070160281,-0.899310,0.410981,-0.699368
1070210753,-0.843891,0.512781,-0.681031
1070261231,-0.788415,0.642247,-0.653127
1070311715,-0.742240,0.716266,-0.644275
1070362188,-0.696233,0.725807,-0.654647
1070412670,-0.650054,0.753160,-0.695303
1070463144,-0.622517,0.706992,-0.734897
1070513614,-0.677794,0.632498,-0.763502
1070564087,-0.677901,0.614353,-0.753336
1070614575,-0.687085,0.595573,-0.773095
1070665025,-0.687031,0.567378,-0.812538
1070715496,-0.613331,0.604574,-0.833512
1070765963,-0.502817,0.651217,-0.864997
1070816429,-0.346255,0.697889,-0.926661
1070866898,-0.226692,0.707985,-0.957564
1070917378,-0.300395,0.782667,-0.828311
1070967855,-0.465845,0.753145,-0.826565
1071018333,-0.420033,0.661054,-0.885880
1071068810,-0.364700,0.688669,-0.916301
1071119285,-0.327947,0.763642,-0.847678
1071169762,-0.374000,0.894173,-0.689458
1071220244,-0.502929,0.959313,-0.539297
1071270728,-0.724272,0.895468,-0.367294
1071321209,-0.983310,0.705051,-0.074013
1071371689,-1.067250,0.569991,0.117577
1071422158,-1.113587,0.450311,0.119247
1071472635,-1.159807,0.376466,0.120470
1071523108,-1.178470,0.302959,0.121452
1071573581,-1.197019,0.107886,-0.015785
1071624054,-1.187966,-0.087200,-0.173206
1071674526,-1.205899,0.003831,-0.193956
1071725000,-1.187602,-0.042278,-0.223540
1071775478,-1.196643,0.059615,-0.154758
1071825939,-1.187007,0.234661,-0.106959
1071876404,-1.149895,0.429080,-0.019724
1071926878,-1.066802,0.661226,0.096610
1071977355,-0.882457,0.884245,0.142425
1072027831,-0.669494,1.065463,-0.120533
1072078301,-0.420330,1.147088,-0.342825
1072128777,-0.180876,1.119220,-0.534010
1072179255,-0.171600,1.081632,-0.593481
1072229736,-0.364799,0.950104,-0.640122
1072280213,-0.530580,0.987384,-0.489757
1072330694,-0.567196,0.967696,-0.538915
1072381185,-0.622365,0.706286,-0.774755
1072431664,-0.640877,0.650761,-0.794148
1072482140,-0.650299,0.595842,-0.783268
1072532622,-0.650292,0.577168,-0.802995
1072583096,-0.659439,0.576879,-0.812879
1072633574,-0.677954,0.540016,-0.812433
1072684047,-0.696390,0.521462,-0.811953
1072734516,-0.724089,0.493816,-0.801445
1072784981,-0.751608,0.493300,-0.811169
1072835451,-0.751715,0.475155,-0.801003
1072885927,-0.760973,0.466057,-0.790857
1072936404,-0.770270,0.438467,-0.790589
1072986876,-0.770232,0.438291,-0.800555
1073037340,-0.770152,0.447270,-0.810504
1073087807,-0.788677,0.410409,-0.810176
1073138281,-0.779358,0.419318,-0.829929
1073188747,-0.761053,0.438409,-0.800752
1073239218,-0.761001,0.438223,-0.810483
1073289693,-0.742567,0.456776,-0.810963
1073390645,-0.724010,0.502795,-0.811393
1073441117,-0.724023,0.521474,-0.791783
1073491598,-0.733187,0.530535,-0.792034
1073542079,-0.723906,0.548807,-0.802517
1073592558,-0.714630,0.576551,-0.792469
1073643043,-0.696301,0.558295,-0.802625
1073693519,-0.705550,0.539853,-0.802227
1073744003,-0.696319,0.521115,-0.832003
1073794477,-0.687186,0.474890,-0.861351
1073844958,-0.705586,0.418826,-0.910672
1073895430,-0.678156,0.382516,-0.910244
1073945909,-0.669157,0.346168,-0.900217
1073996382,-0.678443,0.309234,-0.909701
1074046864,-0.706065,0.290571,-0.909126
1074097331,-0.706210,0.272602,-0.888993
1074147799,-0.724576,0.272374,-0.888703
