Timestamp (us),X (a.u.),Y (a.u.),Z (a.u.)
6068978221,-0.057572,-0.335623,-0.996468
6069028654,-0.066679,-0.335539,-0.996683
6069129531,-0.048559,-0.335730,-0.986798
6069179966,-0.057815,-0.344873,-0.966906
6069230390,-0.039490,-0.345003,-0.976819
6069280827,-0.048765,-0.335791,-0.966996
6069331261,-0.039490,-0.345003,-0.976819
6069381696,-0.048559,-0.335730,-0.986798
6069432140,-0.075991,-0.335517,-0.977094
6069482579,-0.048396,-0.344862,-0.996584
6069533015,-0.057912,-0.344898,-0.957314
6069583445,-0.039554,-0.335843,-0.976747
6069633875,-0.066886,-0.335603,-0.976757
6069684315,-0.066886,-0.335603,-0.976757
6069734760,-0.048724,-0.326599,-0.976887
6069785199,-0.048519,-0.326538,-0.996690
6069835641,-0.039386,-0.344971,-0.986785
6069886090,-0.057766,-0.335673,-0.977295
6069936526,-0.057465,-0.335589,-1.006563
6069986959,-0.048500,-0.344894,-0.986619
6070087822,-0.057768,-0.335675,-0.977170
6070138263,-0.039519,-0.326657,-0.986385
6070188706,-0.048505,-0.344899,-0.986366
6070239147,-0.048658,-0.335757,-0.977084
6070289587,-0.057607,-0.344810,-0.986832
6070340028,-0.039508,-0.326646,-0.986890
6070390475,-0.039514,-0.326652,-0.986638
6070440908,-0.057669,-0.335648,-0.986885
6070491347,-0.030201,-0.326674,-1.006227
6070541784,-0.048724,-0.326599,-0.976887
6070592215,-0.048687,-0.317411,-0.986651
6070642656,-0.039508,-0.326646,-0.986890
6070693099,-0.048786,-0.317437,-0.976939
6070743541,-0.048666,-0.335764,-0.976709
6070793976,-0.057732,-0.326488,-0.986811
6070844418,-0.048521,-0.326541,-0.996562
6070894859,-0.039409,-0.326620,-0.996603
6070945301,-0.039674,-0.317516,-0.976978
6070995733,-0.048580,-0.317376,-0.996743
6071046158,-0.048844,-0.308272,-0.977117
6071096585,-0.049007,-0.299140,-0.967331
6071147013,-0.048707,-0.299058,-0.996593
6071197437,-0.049010,-0.299143,-0.967208
6071247866,-0.039793,-0.299189,-0.977209
6071298283,-0.048764,-0.289889,-0.996902
6071348701,-0.048964,-0.289945,-0.977348
6071399124,-0.048710,-0.299061,-0.996466
6071449553,-0.067127,-0.298950,-0.977219
6071499984,-0.067088,-0.289762,-0.986983
6071550422,-0.048804,-0.299081,-0.987010
6071600859,-0.058081,-0.289873,-0.977060
6071651297,-0.048873,-0.289928,-0.986684
6071701727,-0.048926,-0.280756,-0.987115
6071752159,-0.049028,-0.280786,-0.977276
6071802603,-0.057895,-0.317356,-0.977026
6071853040,-0.048729,-0.326605,-0.976637
6071903476,-0.066778,-0.335566,-0.986971
6071953913,-0.048607,-0.344928,-0.976531
6072004364,-0.048623,-0.326570,-0.986724
6072054805,-0.057829,-0.326513,-0.977223
6072206162,-0.065559,-0.610600,-0.925996
6072256607,-0.119638,-0.802718,-0.856668
6072307059,-0.174450,-1.022583,-0.698536
6072357499,-0.276090,-1.233246,-0.422901
6072407937,-0.416045,-1.361513,-0.020104
6072458382,-0.556831,-1.352337,0.372233
6072508833,-0.690280,-1.169311,0.822812
6072559275,-0.814300,-0.747559,1.094056
6072609717,-0.900213,-0.206360,1.119830
6072660164,-0.927869,0.280352,0.831723
6072710603,-0.888789,0.583755,0.377724
6072761048,-0.820115,0.630457,-0.123859
6072811493,-0.732118,0.447843,-0.584393
6072861938,-0.599369,0.108548,-0.866411
6072912383,-0.477253,-0.341233,-0.931785
6072962826,-0.338857,-0.727509,-0.849657
6073013272,-0.238850,-1.049788,-0.620672
6073063715,-0.149190,-1.262125,-0.342864
6073114160,-0.105286,-1.382365,-0.105608
6073164602,-0.070473,-1.429043,0.081953
6073215040,-0.089606,-1.429181,0.170397
6073265488,-0.071632,-1.438540,0.200039
6073315929,-0.080843,-1.438506,0.209828
6073366371,-0.071429,-1.438499,0.180397
6073416813,-0.080152,-1.419947,0.131009
6073467260,-0.098127,-1.410587,0.101335
6073517702,-0.088348,-1.419564,0.042340
6073568148,-0.087738,-1.419406,-0.016672
6073669033,-0.087107,-1.391720,-0.095541
6073719467,-0.096073,-1.382452,-0.115375
6073769899,-0.087209,-1.391732,-0.085698
6073820336,-0.087797,-1.410316,-0.016698
6073870772,-0.070841,-1.419933,0.111368
6073921212,-0.099997,-1.420272,0.288311
6073971660,-0.111159,-1.402370,0.474865
6074022112,-0.177790,-1.338372,0.709963
6074072561,-0.244914,-1.201093,0.944778
6074123011,-0.357543,-1.008299,1.139383
6074173455,-0.488492,-0.696040,1.264633
6074223907,-0.600701,-0.319526,1.300407
6074274360,-0.702258,0.048194,1.189472
6074324803,-0.801772,0.361376,0.920749
6074375253,-0.863015,0.546294,0.555173
6074425706,-0.905084,0.611896,0.180372
6074476151,-0.929026,0.558090,-0.114633
6074526606,-0.917464,0.476143,-0.301049
6074577055,-0.906765,0.412200,-0.408703
6074627507,-0.915217,0.357414,-0.438031
6074677951,-0.924597,0.384937,-0.428391
6074728393,-0.906547,0.366346,-0.398558
6074778846,-0.916702,0.412063,-0.330132
6074829289,-0.917937,0.457625,-0.241878
6074879735,-0.919407,0.512257,-0.133957
6074930179,-0.911853,0.557670,-0.016063
6074980627,-0.932396,0.603037,0.180274
6075031073,-0.898687,0.601898,0.446205
6075081515,-0.856102,0.554757,0.761830
6075131962,-0.775982,0.360705,1.068735
6075182423,-0.703067,0.066294,1.257881
6075232867,-0.609883,-0.310280,1.300457
6075283316,-0.477824,-0.732395,1.137171
6075333761,-0.326320,-1.135957,0.845502
6075434642,-0.115553,-1.437643,0.042185
6075485093,-0.094308,-1.372674,-0.292451
6075535541,-0.083757,-1.253034,-0.509576
6075585983,-0.073779,-1.124320,-0.677328
6075636430,-0.073858,-1.005041,-0.747151
6075686886,-0.082830,-0.903930,-0.826439
6075737325,-0.073844,-0.793889,-0.886022
6075787769,-0.055788,-0.693125,-0.935746
6075838219,-0.074727,-0.601360,-0.926253
6075888678,-0.074829,-0.555492,-0.946190
6075939122,-0.066290,-0.454763,-0.956644
6075989566,-0.085283,-0.353847,-0.947561
6076040013,-0.068310,-0.198320,-0.928493
6076090457,-0.078766,-0.042583,-0.899855
6076140906,-0.063147,0.195213,-0.803108
6076191354,-0.048395,0.423501,-0.617062
6076241797,-0.061756,0.633482,-0.342944
6076292242,-0.065435,0.788538,-0.088099
6076342696,-0.078714,0.879214,0.255704
6076393151,-0.063687,0.868899,0.570648
6076443605,-0.084709,0.785633,0.895599
6076494048,-0.077079,0.610709,1.152474
6076544493,-0.113917,0.381426,1.340367
6076594945,-0.104132,0.096979,1.460359
6076645388,-0.111606,-0.177873,1.481108
6076695839,-0.118594,-0.434206,1.442947
6076746293,-0.097609,-0.681421,1.336750
6076796742,-0.112408,-0.918950,1.161041
6076847190,-0.108500,-1.138124,0.926032
6076897652,-0.112665,-1.329370,0.572806
6076948106,-0.117098,-1.419767,0.179858
6077049006,-0.110255,-1.179083,-0.638011
6077099454,-0.091761,-0.839522,-0.885706
6077149910,-0.112142,-0.408545,-0.957342
6077200360,-0.107331,0.067485,-0.851896
6077250807,-0.122345,0.478954,-0.549348
