Timestamp (us),X (a.u.),Y (a.u.),Z (a.u.)
773344641,-0.540395,-0.849628,-0.713589
773395238,-0.503982,-0.894756,-0.683777
773445832,-0.476750,-0.930745,-0.653759
773496432,-0.421958,-0.984810,-0.623290
773547034,-0.367251,-1.011445,-0.583682
773597634,-0.340345,-1.046947,-0.523733
773648229,-0.313217,-1.082840,-0.484002
773698819,-0.267707,-1.109457,-0.444160
773749414,-0.240673,-1.126936,-0.394662
773800007,-0.213528,-1.126247,-0.355118
773850601,-0.195480,-1.162321,-0.325210
773901198,-0.177520,-1.152544,-0.285763
773951790,-0.186501,-1.162009,-0.305459
774002387,-0.232583,-1.171127,-0.295291
774052988,-0.333435,-1.135433,-0.315579
774103590,-0.526411,-1.081524,-0.316051
774154193,-0.829041,-0.882726,-0.367415
774204797,-1.077308,-0.582187,-0.340924
774255373,-1.159940,-0.454754,-0.342260
774305967,-1.122192,-0.510742,-0.440617
774356564,-0.955683,-0.703154,-0.547051
774457763,-0.476685,-0.994715,-0.662582
774508366,-0.274500,-1.012040,-0.662455
774558974,-0.221633,-1.100292,-0.454278
774609573,-0.241988,-1.180052,-0.275490
774660179,-0.141524,-1.197102,-0.216196
774710785,-0.105189,-1.214676,-0.176536
774761382,-0.169316,-1.187763,-0.196436
774811979,-0.334952,-1.179150,-0.176762
774862578,-0.628545,-1.053213,-0.217489
774963782,-1.106856,-0.643820,-0.162554
775014377,-1.050345,-0.700072,-0.290297
775064971,-0.966814,-0.764662,-0.368581
775115565,-0.846346,-0.847657,-0.466605
775166154,-0.761796,-0.813032,-0.634813
775216744,-0.687762,-0.840773,-0.684011
775267337,-0.604829,-0.840644,-0.703691
775317933,-0.549808,-0.867643,-0.693543
775368530,-0.503972,-0.885555,-0.683490
775419126,-0.467657,-0.921346,-0.643526
775469726,-0.394472,-0.957158,-0.613717
775520312,-0.349502,-1.001381,-0.524367
775570910,-0.351028,-1.063402,-0.385432
775621509,-0.287898,-1.116357,-0.276157
775672108,-0.270907,-1.141951,-0.147576
775722706,-0.354794,-1.140807,-0.038899
775773311,-0.620723,-1.033177,-0.089359
775823909,-0.913825,-0.816487,-0.170562
775874505,-0.988469,-0.714945,-0.063036
775925096,-0.941981,-0.724523,-0.112311
775975699,-0.904197,-0.744005,-0.210966
776026305,-0.866694,-0.763025,-0.279887
776076910,-0.838272,-0.773092,-0.358759
776127520,-0.828870,-0.764204,-0.378666
776178127,-0.809640,-0.765198,-0.457685
776228735,-0.781425,-0.747635,-0.517222
776279332,-0.744447,-0.747735,-0.536990
776329939,-0.707597,-0.793320,-0.546238
776380531,-0.670452,-0.839389,-0.585514
776431123,-0.596391,-0.848820,-0.634658
776481721,-0.540820,-0.849105,-0.674183
776532314,-0.475765,-0.886272,-0.742951
776582910,-0.374458,-0.895187,-0.762534
776633504,-0.300537,-0.941036,-0.801573
776684104,-0.227139,-0.977081,-0.791332
776734704,-0.172767,-1.030682,-0.721741
776785290,-0.155288,-1.111688,-0.641858
776835880,-0.212289,-1.182667,-0.473089
776886483,-0.258571,-1.200758,-0.443318
776937083,-0.323343,-1.218799,-0.403654
776987681,-0.499335,-1.190416,-0.275391
777038285,-0.866626,-1.000638,-0.297019
777088892,-1.042037,-0.909068,-0.218942
777139485,-0.940455,-0.964072,-0.267802
777190089,-0.893343,-0.965362,-0.376501
777240693,-0.892683,-0.929652,-0.436150
777291293,-0.883053,-0.921001,-0.475689
777341893,-0.881973,-0.904072,-0.574555
777392490,-0.880754,-0.814275,-0.684239
777443098,-0.870432,-0.696907,-0.784370
777493695,-0.879603,-0.678676,-0.784453
777544299,-0.879509,-0.697071,-0.794133
777594900,-0.879660,-0.751730,-0.783783
777645504,-0.842782,-0.751680,-0.793561
777696109,-0.815215,-0.769797,-0.793265
777746716,-0.796434,-0.788543,-0.832804
777797335,-0.759575,-0.797654,-0.842713
777847926,-0.722272,-0.807239,-0.891646
777898536,-0.667265,-0.843403,-0.881646
777949146,-0.612028,-0.870655,-0.891125
777999759,-0.584681,-0.888536,-0.871310
778050374,-0.547932,-0.915719,-0.870787
778100981,-0.493130,-0.951617,-0.841029
778151601,-0.475408,-0.987243,-0.781386
778202194,-0.457792,-1.022713,-0.711766
778252797,-0.403860,-1.094035,-0.602463
778303399,-0.396402,-1.146614,-0.443856
778354006,-0.398434,-1.171419,-0.255869
778404613,-0.305776,-1.172005,-0.325172
778455224,-0.398286,-1.107624,-0.266385
778505863,-0.520397,-1.068345,-0.019909
778556450,-0.821970,-0.870873,-0.170064
778607063,-1.042016,-0.561870,-0.202895
778657671,-1.051630,-0.543124,-0.163618
778708282,-1.041826,-0.543912,-0.222941
778758887,-1.040948,-0.499340,-0.302451
778809489,-1.031096,-0.463586,-0.362112
778860098,-1.030831,-0.418188,-0.382244
778910707,-1.011901,-0.391388,-0.431918
778961307,-1.002078,-0.383033,-0.491341
779011910,-0.946722,-0.401300,-0.510845
779062504,-0.928153,-0.410632,-0.530655
779113098,-0.881852,-0.419919,-0.559890
779163697,-0.845004,-0.429032,-0.569838
779214306,-0.799056,-0.419707,-0.570112
779264908,-0.752641,-0.401740,-0.609491
779315508,-0.706495,-0.401832,-0.629605
779366108,-0.669509,-0.401914,-0.649191
779416704,-0.641834,-0.401930,-0.659168
779467304,-0.595666,-0.401988,-0.678937
779517902,-0.568113,-0.429260,-0.678749
779568502,-0.549529,-0.447695,-0.698219
779619097,-0.540456,-0.465778,-0.688150
779669693,-0.540587,-0.502163,-0.677884
779720293,-0.522114,-0.529581,-0.687282
779770890,-0.549933,-0.566016,-0.667604
779821481,-0.540958,-0.583917,-0.647287
779872073,-0.540991,-0.629579,-0.646891
779922676,-0.541013,-0.656996,-0.646780
779973276,-0.559414,-0.693561,-0.646112
780023868,-0.568733,-0.729973,-0.635754
780074455,-0.577623,-0.748710,-0.665365
780125044,-0.596133,-0.785164,-0.655001
780175627,-0.614627,-0.794244,-0.645022
780226220,-0.633020,-0.794377,-0.645288
780276811,-0.678871,-0.812936,-0.654681
780327403,-0.734251,-0.822100,-0.635083
780377999,-0.780208,-0.831426,-0.634881
780428592,-0.835767,-0.821995,-0.595363
780479188,-0.881612,-0.804098,-0.605505
780529785,-0.927729,-0.767474,-0.585874
780580380,-0.955405,-0.749222,-0.576268
780630983,-0.955536,-0.758247,-0.566456
780681588,-0.946233,-0.749209,-0.576434
780732190,-0.927741,-0.758374,-0.586138
780782791,-0.955417,-0.767482,-0.576073
780833397,-0.918883,-0.767073,-0.556493
780884005,-0.927977,-0.767265,-0.566448
780934613,-0.937138,-0.749017,-0.566479
780985215,-0.900187,-0.749162,-0.586494
781035816,-0.890455,-0.758894,-0.635623
781086410,-0.853147,-0.741139,-0.685220
781137007,-0.843505,-0.723346,-0.724726
781187605,-0.834448,-0.732343,-0.715057
781238206,-0.806536,-0.723461,-0.744593
781288811,-0.797027,-0.732938,-0.774020
781339406,-0.815272,-0.687508,-0.784377
781390008,-0.788372,-0.732236,-0.724749
781440604,-0.789830,-0.830946,-0.595450
781491191,-0.837517,-0.902007,-0.436461
781541789,-0.930567,-0.873540,-0.328031
781592389,-1.032601,-0.808915,-0.239875
781642992,-1.107036,-0.771491,-0.151289
781693595,-1.153729,-0.725137,-0.082665
781744203,-1.182352,-0.687407,0.015732
781794803,-1.228757,-0.632127,0.064546
781845410,-1.275093,-0.567891,0.103381
781896016,-1.302944,-0.458072,0.131874
781946619,-1.358331,-0.393996,0.160810
781997227,-1.385879,-0.330220,0.160155
782047829,-1.404555,-0.265995,0.189130
782098422,-1.431956,-0.165825,0.178190
782149015,-1.440717,-0.056707,0.147359
782199612,-1.459024,0.025376,0.146473
782250214,-1.449691,0.107453,0.135733
782300815,-1.449237,0.152563,0.095745
782351421,-1.458173,0.216160,0.075316
782402030,-1.448890,0.252596,0.065059
782452635,-1.457719,0.288664,0.035037
782503238,-1.439438,0.325410,0.044520
782553841,-1.448604,0.334492,0.044423
782604444,-1.448348,0.370736,0.024281
782655046,-1.439052,0.398040,0.014109
782705655,-1.439183,0.416450,0.023790
782756268,-1.429817,0.434595,0.013717
782806871,-1.429961,0.462144,0.023300
782857469,-1.429843,0.480270,0.013226
782908076,-1.420546,0.507578,0.003049
782958670,-1.411498,0.498724,0.022905
783009263,-1.421063,0.499113,0.052545
783059861,-1.430522,0.490318,0.082260
783110461,-1.421880,0.491044,0.131648
783161061,-1.431613,0.473416,0.181229
783211651,-1.431725,0.464421,0.191203
783262247,-1.432055,0.446566,0.221027
783312847,-1.432630,0.438127,0.270574
783363448,-1.451758,0.375059,0.340332
783414050,-1.460919,0.292717,0.331376
783464651,-1.470521,0.192767,0.371778
783515255,-1.470836,0.129138,0.392351
783565857,-1.488996,0.083129,0.372999
783616461,-1.497763,0.082547,0.333506
783667075,-1.506402,0.145741,0.283492
783717682,-1.496924,0.191039,0.253467
783768290,-1.505931,0.245635,0.242948
783818897,-1.487306,0.291100,0.222702
783869504,-1.486872,0.336217,0.182729
783920105,-1.486801,0.381854,0.182200
783970713,-1.476963,0.426744,0.122472
784021325,-1.476421,0.444330,0.072894
784071937,-1.475654,0.452507,0.003663
784122543,-1.493799,0.360725,-0.024990
784173149,-1.538795,0.149168,-0.121460
784223751,-1.529275,-0.088841,-0.168354
784274358,-1.500676,-0.327572,-0.274432
784324968,-1.445086,-0.455810,-0.322464
784375579,-1.408513,-0.528565,-0.311914
784426182,-1.352956,-0.601868,-0.350562
784476785,-1.324566,-0.648469,-0.429087
784527390,-1.297358,-0.693600,-0.399041
784577990,-1.306779,-0.720762,-0.378992
784628594,-1.343467,-0.656996,-0.379551
784679200,-1.398651,-0.556689,-0.370730
784729801,-1.453828,-0.419872,-0.362351
784780409,-1.499667,-0.246617,-0.364187
784831019,-1.536391,-0.000146,-0.356980
784881620,-1.554908,0.146122,-0.338828
784932221,-1.508824,0.246755,-0.339768
784982823,-1.509119,0.311073,-0.310873
785033423,-1.509269,0.274692,-0.300652
785084027,-1.508514,0.136662,-0.378204
785134629,-1.508199,-0.055606,-0.415605
785185229,-1.480826,-0.238097,-0.413904
785235824,-1.461917,-0.357354,-0.461783
785286424,-1.397323,-0.421380,-0.490818
785337028,-1.397165,-0.476440,-0.510060
785387627,-1.379077,-0.466810,-0.480461
