Timestamp (us),X (a.u.),Y (a.u.),Z (a.u.)
10174477323,-0.676019,-0.784716,-0.669061
10174527171,-0.685282,-0.811567,-0.638337
10174577024,-0.667075,-0.802792,-0.668792
10174626875,-0.676066,-0.793671,-0.658780
10174676726,-0.676125,-0.793763,-0.669090
10174726580,-0.667170,-0.811791,-0.658823
10174776431,-0.676171,-0.802717,-0.658808
10174826283,-0.667048,-0.802729,-0.658692
10174876143,-0.685320,-0.811678,-0.658437
10174925998,-0.658179,-0.820912,-0.668837
10174975852,-0.676245,-0.811734,-0.658630
10175025717,-0.676229,-0.811719,-0.658527
10175075575,-0.676288,-0.811812,-0.668836
10175125431,-0.667075,-0.802792,-0.668792
10175175291,-0.676345,-0.820814,-0.668552
10175225148,-0.676112,-0.802625,-0.648502
10175275004,-0.676155,-0.802702,-0.658705
10175324860,-0.685273,-0.802723,-0.668716
10175374719,-0.685263,-0.802676,-0.658718
10175424574,-0.685246,-0.802661,-0.658615
10175474420,-0.667013,-0.793823,-0.678967
10175524262,-0.676139,-0.802688,-0.658602
10175574102,-0.667091,-0.802807,-0.668897
10175623947,-0.667091,-0.802807,-0.668897
10175673801,-0.685211,-0.793754,-0.678893
10175723652,-0.676209,-0.802828,-0.678908
10175773496,-0.676120,-0.793796,-0.678983
10175823338,-0.676198,-0.802780,-0.668911
10175873183,-0.676334,-0.820766,-0.658555
10175923025,-0.676198,-0.802780,-0.668911
10175972868,-0.676245,-0.811734,-0.658630
10176022715,-0.685130,-0.793566,-0.648588
10176072562,-0.685087,-0.793489,-0.638387
10176122408,-0.694113,-0.793274,-0.608093
10176172260,-0.685041,-0.802208,-0.587812
10176222103,-0.685236,-0.820286,-0.587755
10176271957,-0.676075,-0.820188,-0.567552
10176321806,-0.676259,-0.838220,-0.557479
10176371650,-0.676289,-0.847158,-0.547127
10176421486,-0.676316,-0.847220,-0.557227
10176471339,-0.676305,-0.847173,-0.547214
10176521179,-0.667365,-0.847544,-0.597906
10176571026,-0.658339,-0.847757,-0.628206
10176620878,-0.622323,-0.857535,-0.719516
10176670723,-0.577149,-0.858416,-0.830971
10176720574,-0.504676,-0.859329,-0.922746
10176770423,-0.432037,-0.842224,-1.024646
10176820279,-0.368257,-0.806888,-1.106400
10176870132,-0.313004,-0.708424,-1.208977
10176919990,-0.257625,-0.609683,-1.270779
10176969844,-0.220858,-0.555969,-1.322104
10177019691,-0.220519,-0.519894,-1.332308
10177069539,-0.201745,-0.456824,-1.343315
10177119387,-0.219444,-0.402674,-1.363791
10177169231,-0.236833,-0.321352,-1.373979
10177219086,-0.254370,-0.257989,-1.364427
10177268937,-0.272229,-0.230685,-1.344269
10177318791,-0.308155,-0.185362,-1.344484
10177368638,-0.344404,-0.176101,-1.334095
10177418490,-0.371328,-0.148691,-1.303741
10177468336,-0.398342,-0.130315,-1.273312
10177518190,-0.434412,-0.102989,-1.263074
10177568037,-0.470271,-0.066380,-1.212317
10177617885,-0.524298,-0.029627,-1.151468
10177667733,-0.569508,-0.011167,-1.121031
10177717581,-0.605648,-0.001655,-1.070231
10177767426,-0.650954,-0.001135,-1.019112
10177817281,-0.678423,-0.036762,-0.957933
10177867128,-0.742203,-0.072098,-0.876191
10177916983,-0.788016,-0.116800,-0.835087
10177966833,-0.806958,-0.197940,-0.824002
10178016685,-0.816657,-0.269904,-0.782906
10178066535,-0.817284,-0.333127,-0.782381
10178116388,-0.818070,-0.423196,-0.741225
10178166230,-0.809760,-0.495574,-0.751048
10178216079,-0.783102,-0.567759,-0.720294
10178265933,-0.747373,-0.631201,-0.730119
10178315789,-0.720717,-0.685705,-0.760244
10178365636,-0.685004,-0.740279,-0.790702
10178415491,-0.630863,-0.776817,-0.821004
10178465338,-0.603865,-0.795208,-0.851559
10178515191,-0.567675,-0.795798,-0.922499
10178565040,-0.540469,-0.796063,-0.943116
10178664742,-0.522376,-0.805178,-0.943221
10178714599,-0.531413,-0.805011,-0.922925
10178764457,-0.540451,-0.804845,-0.902630
10178814307,-0.558476,-0.795589,-0.882183
10178864165,-0.567491,-0.786530,-0.882303
10178914015,-0.576699,-0.795583,-0.892241
10178963872,-0.558565,-0.804621,-0.882108
10179013729,-0.567733,-0.813564,-0.871975
10179063586,-0.558677,-0.822512,-0.851785
10179113441,-0.558761,-0.840373,-0.821200
10179163294,-0.568192,-0.885241,-0.780329
10179213154,-0.586315,-0.893830,-0.719577
10179263007,-0.604321,-0.893355,-0.658676
10179312852,-0.631537,-0.901903,-0.597816
10179362701,-0.667331,-0.856309,-0.557331
10179412548,-0.694452,-0.838183,-0.567312
10179462402,-0.703651,-0.838392,-0.607627
10179512252,-0.676256,-0.811782,-0.668627
10179562099,-0.640204,-0.812652,-0.780208
10179611955,-0.549802,-0.823055,-0.932698
10179661809,-0.458855,-0.788094,-1.055134
10179711663,-0.367541,-0.716991,-1.177693
10179761515,-0.311770,-0.564387,-1.290625
10179811364,-0.292210,-0.411248,-1.342789
10179861211,-0.282384,-0.338976,-1.333576
10179911059,-0.299530,-0.230622,-1.354100
10179960905,-0.334909,-0.139947,-1.323987
10180010750,-0.397537,-0.049025,-1.273988
10180060599,-0.460068,0.042022,-1.203026
10180110445,-0.541236,0.088059,-1.121959
10180160287,-0.623019,0.070871,-1.040186
10180210126,-0.686611,0.062443,-0.988973
10180259966,-0.732307,0.017928,-0.917297
10180309812,-0.759839,-0.017760,-0.866491
10180359655,-0.796712,-0.080629,-0.835041
10180409494,-0.824612,-0.152510,-0.793893
10180459335,-0.825648,-0.269670,-0.752395
10180509171,-0.835528,-0.342014,-0.772024
10180559014,-0.826877,-0.387159,-0.761755
10180608856,-0.790826,-0.396914,-0.852836
10180658695,-0.772662,-0.397004,-0.853147
10180708545,-0.799272,-0.342431,-0.812790
10180808236,-0.835267,-0.314975,-0.782230
10180858080,-0.835512,-0.333113,-0.792424
10180907922,-0.808086,-0.306449,-0.843305
10180957763,-0.762157,-0.243864,-0.914712
10181007605,-0.698441,-0.208599,-1.006834
10181057448,-0.662693,-0.245461,-1.097973
10181107290,-0.544817,-0.246749,-1.220197
10181157133,-0.463272,-0.265433,-1.261075
10181206979,-0.435883,-0.256463,-1.251321
10181256830,-0.390664,-0.266021,-1.302391
10181306676,-0.345881,-0.329527,-1.312811
10181356525,-0.328592,-0.428770,-1.281661
10181406373,-0.302240,-0.519279,-1.291284
10181456219,-0.275360,-0.564439,-1.270973
10181506068,-0.275816,-0.618443,-1.240215
10181555918,-0.267199,-0.672540,-1.219466
10181655613,-0.322424,-0.762108,-1.137363
10181705464,-0.350073,-0.815800,-1.076034
10181755320,-0.413537,-0.815117,-1.014640
10181805164,-0.486213,-0.832300,-0.923010
10181855016,-0.540695,-0.849551,-0.831407
10181904859,-0.622120,-0.830611,-0.749934
10181954710,-0.649133,-0.812235,-0.719509
10182004562,-0.667067,-0.793948,-0.699167
10182054411,-0.658143,-0.812005,-0.689115
10182104263,-0.658295,-0.830007,-0.678863
10182154108,-0.658295,-0.830007,-0.678863
10182203960,-0.631049,-0.830194,-0.689235
10182253812,-0.649247,-0.830126,-0.689162
10182303663,-0.649119,-0.820984,-0.669136
10182353511,-0.667341,-0.838684,-0.628191
10182403380,-0.658196,-0.838600,-0.608078
10182453231,-0.667330,-0.838637,-0.618187
10182552926,-0.685182,-0.820161,-0.567552
10182602770,-0.712339,-0.810942,-0.557255
10182652617,-0.721330,-0.801820,-0.547226
10182702466,-0.730180,-0.774745,-0.557463
10182752319,-0.730190,-0.774793,-0.567476
10182802168,-0.721116,-0.774849,-0.567656
10182852029,-0.730262,-0.774933,-0.587772
10182901876,-0.721064,-0.765928,-0.587844
10182951725,-0.721074,-0.765977,-0.597852
10183001572,-0.712070,-0.766172,-0.618336
10183051414,-0.712303,-0.784361,-0.638392
10183101256,-0.685067,-0.784597,-0.658765
10183151106,-0.685165,-0.784799,-0.689176
10183200949,-0.667045,-0.793852,-0.679179
10183250805,-0.658124,-0.803114,-0.709503
10183300657,-0.649060,-0.803218,-0.719696
10183350511,-0.640049,-0.803447,-0.750095
10183400369,-0.639933,-0.794353,-0.740067
10183450224,-0.621921,-0.803656,-0.770481
10183500074,-0.621894,-0.803593,-0.760378
10183549928,-0.612904,-0.812714,-0.770377
10183649631,-0.612946,-0.812792,-0.780599
10183699484,-0.621995,-0.812673,-0.770287
10183749333,-0.612830,-0.803698,-0.770571
10183799186,-0.613036,-0.821824,-0.780524
10183849026,-0.603971,-0.821929,-0.790717
10183898869,-0.613048,-0.821872,-0.790505
10183948713,-0.585991,-0.848936,-0.760481
10183998560,-0.595017,-0.839956,-0.780433
10184048406,-0.577000,-0.858087,-0.780343
10184098256,-0.576883,-0.848993,-0.770318
10184148101,-0.577014,-0.858103,-0.780464
10184197952,-0.586141,-0.866968,-0.760096
