Timestamp (us),X (a.u.),Y (a.u.),Z (a.u.)
6399173382,-0.669409,-0.018160,-0.871378
6399223212,-0.660407,-0.027176,-0.861510
6399273052,-0.660434,-0.027239,-0.871660
6399322886,-0.660328,-0.018202,-0.871601
6399372716,-0.669336,-0.009122,-0.871586
6399422551,-0.660301,-0.018139,-0.861453
6399522231,-0.660418,-0.027239,-0.871526
6399572064,-0.660469,-0.036151,-0.851285
6399621907,-0.669604,-0.036235,-0.871361
6399671738,-0.660445,-0.027302,-0.881674
6399721578,-0.651220,-0.018180,-0.861675
6399771417,-0.669485,-0.018222,-0.881929
6399821261,-0.669593,-0.036172,-0.861345
6399871103,-0.660345,-0.018201,-0.871735
6399920937,-0.660345,-0.018201,-0.871735
6399970769,-0.669314,-0.008995,-0.851551
6400020612,-0.660282,-0.009226,-0.881959
6400070446,-0.660239,-0.009164,-0.871676
6400120288,-0.660345,-0.018201,-0.871735
6400170133,-0.669352,-0.009122,-0.871719
6400219976,-0.669425,-0.018160,-0.871511
6400269819,-0.669485,-0.018222,-0.881929
6400319667,-0.669371,-0.018034,-0.851215
6400369512,-0.660450,-0.027239,-0.871793
6400419356,-0.660250,-0.009228,-0.881690
6400469207,-0.678558,-0.027030,-0.851049
6400519047,-0.660228,-0.009100,-0.861660
6400568885,-0.669406,-0.009247,-0.892019
6400618722,-0.660309,-0.009289,-0.892109
6400668566,-0.660087,0.008849,-0.881975
6400718410,-0.642010,-0.000335,-0.892228
6400768251,-0.642115,-0.009372,-0.892289
6400818092,-0.633146,-0.018578,-0.912465
6400867927,-0.633325,-0.036654,-0.912314
6400917772,-0.633353,-0.036716,-0.922463
6400967609,-0.624310,-0.036884,-0.942849
6401017449,-0.624306,-0.045670,-0.902319
6401067286,-0.633450,-0.054603,-0.891868
6401117118,-0.651512,-0.045419,-0.881479
6401166963,-0.651454,-0.036381,-0.881824
6401216794,-0.651454,-0.036381,-0.881824
6401266631,-0.651489,-0.045293,-0.861450
6401316461,-0.651411,-0.036319,-0.871541
6401366295,-0.651489,-0.045293,-0.861450
6401416132,-0.651586,-0.045482,-0.892035
6401465964,-0.642715,-0.072575,-0.881614
6401515800,-0.633976,-0.108768,-0.881404
6401565638,-0.634003,-0.108831,-0.891554
6401615470,-0.634198,-0.126908,-0.891540
6401665317,-0.625186,-0.136047,-0.901431
6401715159,-0.625070,-0.126946,-0.891358
6401765004,-0.624980,-0.117909,-0.891433
6401814844,-0.624926,-0.117783,-0.871136
6401864683,-0.633835,-0.090817,-0.901716
6401914527,-0.651734,-0.063558,-0.891612
6401964378,-0.660445,-0.027302,-0.881674
6402014216,-0.668967,0.027093,-0.861870
6402064063,-0.686697,0.072363,-0.861933
6402113897,-0.695443,0.099707,-0.831624
6402163729,-0.713368,0.126903,-0.831668
6402213561,-0.731302,0.145250,-0.801193
6402263394,-0.749110,0.181547,-0.791165
6402313228,-0.739807,0.199644,-0.781257
6402363071,-0.730165,0.262678,-0.812318
6402412909,-0.739128,0.271813,-0.802031
6402462748,-0.739163,0.271826,-0.802277
6402512579,-0.720862,0.280774,-0.802410
6402562416,-0.693761,0.262505,-0.812554
6402612256,-0.693975,0.253222,-0.853196
6402662097,-0.676167,0.216925,-0.863224
6402711942,-0.685343,0.207997,-0.853041
6402761778,-0.685316,0.208060,-0.842892
6402811619,-0.667230,0.207725,-0.883671
6402861448,-0.658670,0.153456,-0.883311
6402961105,-0.622558,0.135028,-0.914110
6403010941,-0.631705,0.134874,-0.944185
6403060783,-0.622838,0.107848,-0.923895
6403110623,-0.613652,0.116844,-0.924060
6403160457,-0.640880,0.125944,-0.934014
6403210290,-0.658713,0.153397,-0.893597
6403260121,-0.676737,0.162707,-0.863038
6403309952,-0.712742,0.190167,-0.832194
6403359782,-0.757848,0.208959,-0.750823
6403409611,-0.784780,0.236455,-0.710289
6403459440,-0.838750,0.273347,-0.628643
6403509274,-0.865431,0.310259,-0.527274
6403559104,-0.901215,0.355922,-0.476464
6403608938,-0.946238,0.374978,-0.354502
6403658775,-0.964324,0.375313,-0.313717
6403708607,-0.991940,0.321642,-0.241896
6403758438,-1.010093,0.312931,-0.201005
6403808270,-1.019435,0.277144,-0.149903
6403858104,-1.028552,0.259417,-0.098893
6403907933,-1.056089,0.223712,-0.047595
6403957764,-1.056249,0.196850,-0.006772
6404007602,-1.065452,0.170156,0.054442
6404057437,-1.074978,0.116222,0.095581
6404107272,-1.057380,0.053002,0.116234
6404157117,-1.066858,-0.000937,0.157350
6404206950,-1.040199,-0.073111,0.198293
6404256785,-1.040946,-0.145539,0.178577
6404306621,-1.032391,-0.208595,0.219628
6404356460,-0.996651,-0.272031,0.219817
6404406291,-0.970228,-0.362473,0.230448
6404456129,-0.952720,-0.426005,0.200319
6404505968,-0.926137,-0.489584,0.170125
6404555798,-0.899300,-0.534952,0.160065
6404605633,-0.863566,-0.589649,0.109406
6404655463,-0.854991,-0.635015,0.089402
6404705296,-0.810027,-0.680550,0.069032
6404755124,-0.792048,-0.698822,0.048703
6404804962,-0.774079,-0.708258,-0.002143
6404854798,-0.747311,-0.727226,-0.124068
6404904632,-0.729494,-0.754675,-0.164621
6404954466,-0.684424,-0.782359,-0.225704
6405004291,-0.666631,-0.800988,-0.296874
6405054128,-0.648503,-0.801245,-0.327452
6405103951,-0.621153,-0.783595,-0.378559
6405153773,-0.621094,-0.765820,-0.429379
6405203601,-0.620887,-0.729997,-0.480491
6405253430,-0.611657,-0.703241,-0.531547
6405303256,-0.593276,-0.676399,-0.562397
6405353084,-0.601986,-0.622458,-0.613595
6405402911,-0.619904,-0.586412,-0.644164
6405452742,-0.619716,-0.559487,-0.674838
6405502576,-0.610223,-0.514509,-0.705533
6405552412,-0.600802,-0.469623,-0.746701
6405602246,-0.600435,-0.424623,-0.777521
6405652077,-0.609049,-0.370481,-0.798177
6405701912,-0.590352,-0.307558,-0.839605
6405751745,-0.590290,-0.298583,-0.849830
6405801588,-0.599185,-0.271612,-0.880279
6405851422,-0.589771,-0.235569,-0.890954
6405901260,-0.589503,-0.208456,-0.891179
6405951103,-0.607538,-0.199205,-0.870641
6406000943,-0.625183,-0.144835,-0.860895
6406050779,-0.642656,-0.072511,-0.871198
6406100616,-0.614781,-0.009435,-0.882276
6406150446,-0.623995,-0.018494,-0.892258
6406200289,-0.605801,-0.018577,-0.892439
6406250128,-0.606256,-0.054917,-0.922724
6406299962,-0.588447,-0.091215,-0.932754
6406349793,-0.570665,-0.127575,-0.952933
6406399628,-0.561912,-0.163766,-0.952578
6406449462,-0.525964,-0.200216,-0.973231
6406499298,-0.517239,-0.236468,-0.983023
6406549136,-0.508562,-0.281637,-0.972588
6406598974,-0.499859,-0.326742,-0.952003
6406648806,-0.491251,-0.372092,-0.971869
6406698648,-0.464035,-0.381199,-0.962063
6406748501,-0.464428,-0.426262,-0.941389
6406798328,-0.473767,-0.453271,-0.930924
6406848160,-0.473650,-0.444170,-0.920849
6406897999,-0.482700,-0.435209,-0.940990
6406947834,-0.473834,-0.453405,-0.951368
6406997673,-0.464650,-0.444456,-0.961391
6407047511,-0.464639,-0.435560,-0.982062
6407097352,-0.473455,-0.408396,-0.982047
6407197014,-0.491193,-0.354275,-1.012766
6407246852,-0.490850,-0.318180,-1.023061
6407296694,-0.517844,-0.290879,-1.012867
6407346536,-0.553902,-0.254517,-1.003269
6407396381,-0.589876,-0.218182,-1.002598
6407446222,-0.644096,-0.190570,-0.961836
6407496060,-0.644777,-0.253961,-0.981609
6407545896,-0.618299,-0.326584,-1.011882
6407595735,-0.599852,-0.290819,-1.062796
6407645570,-0.554441,-0.282367,-1.124211
6407695405,-0.518238,-0.291765,-1.155116
6407745241,-0.536508,-0.300715,-1.154686
6407795075,-0.508801,-0.246869,-1.196180
6407844905,-0.517720,-0.228752,-1.196240
6407894743,-0.536030,-0.237769,-1.206134
6407944571,-0.544728,-0.201510,-1.196014
6407994403,-0.598823,-0.155948,-1.175730
6408044237,-0.616452,-0.101575,-1.165850
6408094078,-0.652078,-0.020130,-1.176492
6408143911,-0.642634,0.015917,-1.186854
6408193754,-0.652100,-0.020256,-1.196433
6408243597,-0.670766,-0.074211,-1.165534
6408293435,-0.680176,-0.101348,-1.175545
6408343265,-0.716878,-0.137268,-1.164557
6408393099,-0.717174,-0.164445,-1.174482
6408442936,-0.699590,-0.227790,-1.173959
6408492764,-0.672628,-0.255099,-1.184511
6408542602,-0.690743,-0.246037,-1.194376
6408592439,-0.708677,-0.227689,-1.163897
6408642276,-0.717649,-0.209697,-1.184256
6408692110,-0.753375,-0.146261,-1.184063
6408741948,-0.752855,-0.092037,-1.184692
6408791790,-0.761075,-0.001618,-1.185531
6408841629,-0.751602,0.034491,-1.185743
6408891469,-0.733803,-0.001870,-1.205738
6408941297,-0.734214,-0.038020,-1.205983
6408991130,-0.752264,-0.037685,-1.164846
6409040957,-0.761719,-0.073794,-1.164456
6409090780,-0.761440,-0.055530,-1.133990
6409140602,-0.779679,-0.064296,-1.103628
6409190419,-0.788695,-0.055279,-1.113594
6409240245,-0.797604,-0.037100,-1.103673
6409290065,-0.770833,-0.082541,-1.124038
6409339889,-0.761583,-0.073480,-1.113715
6409389718,-0.779321,-0.028145,-1.103928
6409439547,-0.779266,-0.028019,-1.083629
6409489370,-0.788111,-0.009776,-1.063228
6409539193,-0.814604,0.062839,-1.033114
6409589016,-0.814284,0.098995,-1.033728
6409638839,-0.805418,0.071835,-1.033279
6409688666,-0.805974,0.017610,-1.032986
6409738497,-0.787745,0.026439,-1.053541
6409788322,-0.796644,0.035770,-1.012927
6409838149,-0.814881,0.026877,-1.002369
6409887983,-0.823943,0.027046,-0.982132
6409937811,-0.832822,0.045160,-0.981893
6409987641,-0.823986,0.018069,-0.971759
6410037468,-0.832877,0.036249,-0.961671
6410087295,-0.832853,0.045228,-0.972191
6410137120,-0.841518,0.081545,-0.951953
6410186954,-0.832188,0.099705,-0.931894
6410236778,-0.831838,0.127007,-0.901670
6410286598,-0.831643,0.153999,-0.922336
6410336427,-0.813332,0.171799,-0.952974
6410386244,-0.813725,0.126735,-0.932300
6410436067,-0.822982,0.108698,-0.931917
6410485889,-0.832340,0.081692,-0.921594
6410535708,-0.832243,0.090795,-0.911659
6410585523,-0.850679,0.063827,-0.901102
6410635343,-0.860080,0.027843,-0.880410
6410685166,-0.851251,0.000687,-0.880275
6410734994,-0.842231,-0.008457,-0.890168
6410784813,-0.823609,0.036650,-0.890860
6410834637,-0.832698,0.036756,-0.880755
6410884455,-0.850846,0.036900,-0.870290
6410934281,-0.832598,0.036943,-0.850172
6410984098,-0.850730,0.037217,-0.819668
6411033918,-0.877562,0.073680,-0.789123
6411083748,-0.877672,0.064645,-0.789169
6411133580,-0.886625,0.073850,-0.768852
6411183417,-0.859719,0.037510,-0.778974
6411233248,-0.860030,0.001420,-0.768403
6411283084,-0.878493,-0.025611,-0.767998
6411332924,-0.842353,-0.052891,-0.768015
6411382760,-0.833062,-0.034731,-0.748190
6411432590,-0.842292,-0.052702,-0.737684
6411482424,-0.833374,-0.070819,-0.737625
6411532266,-0.833024,-0.043517,-0.707401
6411582100,-0.860377,-0.052367,-0.696905
6411631933,-0.851116,-0.043245,-0.676666
6411681765,-0.841743,-0.016110,-0.666937
6411731599,-0.841448,0.011066,-0.657013
6411781437,-0.841331,0.020167,-0.646938
6411831280,-0.832047,0.038266,-0.637129
6411881120,-0.822887,0.047200,-0.647445
6411930965,-0.823316,-0.006777,-0.606390
6411980800,-0.841608,-0.024581,-0.575606
6412030638,-0.832546,-0.033535,-0.555319
6412080477,-0.841706,-0.042468,-0.545003
6412130316,-0.814539,-0.060544,-0.524821
6412180156,-0.814387,-0.042530,-0.535122
6412229995,-0.823232,-0.024287,-0.514798
6412279830,-0.814194,-0.042217,-0.484134
6412329669,-0.814007,-0.024078,-0.474213
6412379505,-0.822656,0.012367,-0.433901
6412429343,-0.795042,0.039482,-0.414098
6412479181,-0.803908,0.066642,-0.414367
6412529023,-0.776740,0.048434,-0.414286
6412578863,-0.795435,-0.005581,-0.393423
6412628713,-0.786293,-0.005561,-0.383301
6412678553,-0.768179,-0.014618,-0.373319
6412728395,-0.777580,-0.050602,-0.352629
6412778235,-0.777562,-0.050603,-0.352571
6412828078,-0.768591,-0.059682,-0.352703
6412877910,-0.759279,-0.041648,-0.352826
6412927752,-0.759225,-0.032609,-0.353019
6412977578,-0.759350,-0.050560,-0.332566
6413027411,-0.750118,-0.041501,-0.322526
6413077242,-0.759000,-0.023257,-0.302338
6413127087,-0.767855,0.003836,-0.312624
6413176921,-0.758624,0.012894,-0.302587
6413226768,-0.758803,-0.005182,-0.302437
6413276613,-0.768275,-0.050077,-0.261464
6413326465,-0.777390,-0.050162,-0.281582
6413376312,-0.777407,-0.059074,-0.261162
6413426154,-0.786683,-0.077108,-0.260922
6413475988,-0.777560,-0.068175,-0.271329
6413525822,-0.795620,-0.058991,-0.261027
6413575652,-0.795638,-0.058991,-0.261072
6413625481,-0.786693,-0.077045,-0.250861
6413675316,-0.814047,-0.085896,-0.240365
6413725146,-0.823071,-0.085728,-0.219933
6413774985,-0.831888,-0.067422,-0.189509
6413824819,-0.849985,-0.058238,-0.179289
6413874654,-0.850129,-0.067401,-0.199513
6413924487,-0.868510,-0.094243,-0.168658
6413974311,-0.859807,-0.139348,-0.148074
6414024146,-0.868821,-0.130330,-0.158178
6414073984,-0.887152,-0.139349,-0.168102
6414123817,-0.896312,-0.148282,-0.157787
6414173651,-0.896256,-0.139369,-0.178128
6414223488,-0.914354,-0.130186,-0.167907
6414273320,-0.932375,-0.112089,-0.177993
6414323151,-0.941631,-0.121150,-0.188046
6414372986,-0.941452,-0.103074,-0.188196
6414422813,-0.977640,-0.084831,-0.187950
6414472638,-0.977528,-0.075793,-0.187990
6414522460,-0.986737,-0.084790,-0.187860
6414572285,-0.995874,-0.093723,-0.177511
6414622117,-1.004706,-0.075354,-0.137006
6414671933,-1.032001,-0.075292,-0.146856
6414721753,-1.040811,-0.056923,-0.106323
6414771583,-1.031476,-0.038700,-0.076138
6414821419,-1.049379,-0.020225,-0.025371
6414871247,-1.057869,0.025319,0.025104
6414921074,-1.057578,0.043712,0.075705
6414970904,-1.066466,0.061959,0.095953
6415020728,-1.066352,0.070994,0.095872
6415070557,-1.075605,0.052957,0.096107
6415120387,-1.085231,0.007620,0.066123
6415170211,-1.094480,-0.010351,0.076513
6415220044,-1.112932,-0.028469,0.056545
6415269865,-1.122032,-0.028491,0.046485
6415319686,-1.113111,-0.046545,0.056695
6415369512,-1.112978,-0.046294,0.097293
6415419328,-1.112978,-0.046294,0.097293
6415469157,-1.103949,-0.064096,0.148115
6415518974,-1.113046,-0.064054,0.148205
6415568799,-1.112873,-0.054764,0.188754
6415618615,-1.104022,-0.081983,0.178700
6415668428,-1.103913,-0.081732,0.219299
6415718249,-1.113477,-0.118093,0.179091
6415768059,-1.114142,-0.163786,0.098269
6415817874,-1.114449,-0.199872,0.108712
6415867692,-1.123747,-0.217849,0.119118
6415917516,-1.114680,-0.218013,0.098720
6415967332,-1.114715,-0.226925,0.119094
6416017154,-1.105471,-0.217743,0.149391
6416066981,-1.114311,-0.199497,0.169617
6416116808,-1.095592,-0.162990,0.240210
6416166633,-1.104736,-0.154225,0.189470
6416216457,-1.104766,-0.154349,0.169151
6416266283,-1.104736,-0.154225,0.189470
6416316114,-1.113863,-0.154308,0.169242
6416365947,-1.104885,-0.163512,0.148914
6416415776,-1.114302,-0.190648,0.139093
6416465608,-1.105618,-0.226967,0.119004
6416515443,-1.087779,-0.263143,0.129284
6416565276,-1.105765,-0.244861,0.149630
6416615104,-1.096447,-0.235669,0.179887
6416664934,-1.069063,-0.226696,0.189710
6416714756,-1.068748,-0.208305,0.240315
6416764585,-1.059363,-0.190019,0.280679
6416814407,-1.077284,-0.154034,0.239928
6416864237,-1.068456,-0.181189,0.240063
6416914066,-1.068426,-0.181065,0.260392
6416963897,-1.041188,-0.181316,0.239819
6417013727,-1.041223,-0.190228,0.260197
6417063560,-1.041429,-0.208367,0.250196
6417113384,-1.041636,-0.226506,0.240195
6417163215,-1.041873,-0.244768,0.209869
6417213036,-1.005960,-0.290187,0.199734
6417262863,-1.006112,-0.308200,0.210034
6417312695,-1.006084,-0.308137,0.220183
6417362522,-0.996987,-0.308178,0.220093
6417412344,-0.987804,-0.307973,0.260631
6417462165,-0.987625,-0.289897,0.260481
6417511991,-0.969283,-0.272026,0.239822
6417561817,-0.968844,-0.235686,0.269970
6417611635,-0.996234,-0.235693,0.249998
6417661452,-0.978012,-0.235713,0.259970
6417711280,-0.968939,-0.244783,0.259866
6417761095,-0.969050,-0.253824,0.259971
6417810906,-0.951098,-0.280958,0.270165
6417860732,-0.960482,-0.299244,0.229807
6417910549,-0.960764,-0.317513,0.199529
6417960361,-0.951708,-0.326525,0.209643
6418010170,-0.942755,-0.335731,0.189328
6418059995,-0.952004,-0.353702,0.199718
6418109810,-0.942844,-0.344768,0.189403
6418159630,-0.952037,-0.353822,0.179401
6418209450,-0.951887,-0.344601,0.209793
6418259267,-0.951659,-0.326457,0.219769
6418309087,-0.951648,-0.326341,0.240118
6418358905,-0.942248,-0.308109,0.270269
6418408723,-0.942082,-0.281189,0.239626
6418458538,-0.951152,-0.281084,0.249866
6418508360,-0.942103,-0.281193,0.239653
6418558172,-0.942144,-0.290164,0.249851
6418608001,-0.941944,-0.272084,0.249672
6418657824,-0.951317,-0.290252,0.229667
6418707646,-0.933197,-0.299428,0.219363
6418757472,-0.942294,-0.299386,0.219453
6418807294,-0.924396,-0.326645,0.209350
6418906954,-0.933487,-0.326546,0.219612
6418956783,-0.924225,-0.317419,0.239719
6419006607,-0.932930,-0.281105,0.259835
6419056439,-0.923779,-0.281020,0.280044
6419106272,-0.923725,-0.280894,0.300343
6419156114,-0.914469,-0.262864,0.300139
6419205950,-0.923450,-0.253721,0.310305
6419255783,-0.914153,-0.235684,0.310027
6419305610,-0.923023,-0.217501,0.320079
6419355442,-0.923023,-0.217501,0.320079
6419405273,-0.923208,-0.226670,0.299928
6419455101,-0.932326,-0.235598,0.310171
6419504928,-0.914442,-0.262801,0.310290
6419554756,-0.914353,-0.253763,0.310215
6419604582,-0.914353,-0.253763,0.310215
6419654417,-0.914338,-0.253819,0.299992
6419704248,-0.905495,-0.272066,0.279789
6419754066,-0.914676,-0.281003,0.290138
6419803897,-0.905626,-0.281111,0.279929
6419853723,-0.896708,-0.299229,0.279989
6419903548,-0.878582,-0.308346,0.279851
6419953380,-0.896963,-0.326398,0.269999
6420003208,-0.869486,-0.317179,0.320478
6420053035,-0.860754,-0.353431,0.310499
6420102864,-0.861166,-0.380917,0.249789
6420152689,-0.870722,-0.417222,0.219755
6420202514,-0.843661,-0.444447,0.219662
6420252342,-0.835023,-0.480836,0.189447
6420302167,-0.835435,-0.517114,0.169448
6420351997,-0.817474,-0.535399,0.149118
6420401824,-0.808494,-0.544541,0.138953
6420451659,-0.808873,-0.563014,0.078212
6420501490,-0.817816,-0.553852,0.088370
6420551321,-0.817781,-0.544940,0.067996
6420650977,-0.799730,-0.562983,0.088270
6420700809,-0.817889,-0.553987,0.068073
6420750636,-0.799676,-0.554061,0.067891
6420800467,-0.790831,-0.572314,0.047650
6420850300,-0.800037,-0.572524,0.007136
6420900126,-0.782087,-0.573174,-0.084405
6420949953,-0.773187,-0.591397,-0.104601
6420999780,-0.746324,-0.636607,-0.084240
6421049607,-0.737515,-0.663865,-0.104361
6421099441,-0.701343,-0.673333,-0.145268
6421149270,-0.710690,-0.691505,-0.165359
6421199093,-0.683553,-0.700844,-0.195972
6421248921,-0.683623,-0.700983,-0.216311
6421298743,-0.674513,-0.692213,-0.256990
6421348569,-0.674567,-0.692339,-0.277286
6421398395,-0.683656,-0.683448,-0.307716
6421448222,-0.674654,-0.692490,-0.297685
6421498047,-0.665408,-0.665720,-0.348697
6421547870,-0.665310,-0.647833,-0.379296
6421597684,-0.674212,-0.629704,-0.379294
6421647511,-0.664936,-0.593983,-0.440645
6421697338,-0.655608,-0.549339,-0.522308
6421747167,-0.664580,-0.531347,-0.542667
6421797000,-0.664518,-0.522372,-0.552891
6421846826,-0.655339,-0.504536,-0.583673
6421896656,-0.646280,-0.504694,-0.603970
6421946478,-0.646019,-0.468740,-0.634819
6421996298,-0.636891,-0.468765,-0.634710
6422046120,-0.645863,-0.450773,-0.655066
6422095956,-0.645781,-0.432894,-0.685768
6422145788,-0.645450,-0.396806,-0.696218
6422195615,-0.636139,-0.369860,-0.716833
6422245440,-0.654118,-0.342789,-0.737177
