Timestamp (us),X Axis (a.u.),Y Axis (a.u.),Z Axis (a.u.)
8969326224,-0.779075,-0.352397,0.936283
8969377152,-0.779065,-0.352208,0.946266
8969428083,-0.779044,-0.352218,0.946039
8969479027,-0.778941,-0.343175,0.955475
8969529977,-0.778953,-0.334465,0.945977
8969580921,-0.779014,-0.343528,0.936081
8969631869,-0.787861,-0.343358,0.935980
8969682810,-0.779075,-0.352397,0.936283
8969733752,-0.770207,-0.352577,0.936159
8969784700,-0.770217,-0.352572,0.936271
8969835640,-0.779055,-0.352213,0.946153
8969886575,-0.770310,-0.361620,0.926714
8969937517,-0.805730,-0.360923,0.926650
8969988461,-0.787934,-0.352028,0.946392
8970039400,-0.787800,-0.334295,0.945875
8970090339,-0.779035,-0.352029,0.956023
8970141272,-0.787974,-0.360906,0.946366
8970192212,-0.787923,-0.352033,0.946278
8970243142,-0.788007,-0.360892,0.946708
8970294079,-0.779107,-0.360893,0.956339
8970345010,-0.796689,-0.334298,0.936128
8970395946,-0.788026,-0.361269,0.926738
8970446887,-0.788016,-0.361081,0.936721
8970497827,-0.787902,-0.352042,0.946050
8970548759,-0.787923,-0.352033,0.946278
8970599692,-0.779075,-0.352397,0.936283
8970650624,-0.779158,-0.361256,0.936710
8970701553,-0.779168,-0.361444,0.926726
8970752485,-0.779065,-0.352208,0.946266
8970803412,-0.779148,-0.361068,0.946696
8970854345,-0.787996,-0.352386,0.926869
8970905269,-0.779106,-0.361086,0.946241
8970956201,-0.778993,-0.343344,0.945951
8971007133,-0.779095,-0.352580,0.926413
8971058060,-0.778994,-0.343150,0.956051
8971108987,-0.787954,-0.352212,0.936519
8971159926,-0.796822,-0.352225,0.926547
8971210856,-0.779056,-0.352019,0.956253
8971261786,-0.779119,-0.352184,0.946836
8971312721,-0.787903,-0.351849,0.956149
8971363658,-0.779096,-0.352387,0.936508
8971414593,-0.779076,-0.352203,0.946380
8971465528,-0.779075,-0.352397,0.936283
8971516466,-0.796781,-0.351857,0.946290
8971567400,-0.779025,-0.351840,0.966009
8971618336,-0.787903,-0.351849,0.956149
8971669281,-0.778993,-0.343344,0.945951
8971720209,-0.779035,-0.343518,0.936306
8971771143,-0.787975,-0.352395,0.926647
8971822077,-0.787995,-0.361090,0.936496
8971873004,-0.788026,-0.361269,0.926738
8971923931,-0.796863,-0.360910,0.936620
8971974864,-0.788067,-0.369954,0.936810
8972025791,-0.796854,-0.360721,0.946605
8972076722,-0.796956,-0.369958,0.927062
8972127657,-0.779117,-0.361082,0.946354
8972178600,-0.779158,-0.361256,0.936710
8972229542,-0.779076,-0.352203,0.946380
8972280472,-0.787903,-0.351849,0.956149
8972331407,-0.787811,-0.334290,0.945988
8972382345,-0.778952,-0.334659,0.935879
8972433269,-0.787800,-0.334295,0.945875
8972484208,-0.796690,-0.342616,0.965947
8972535145,-0.778912,-0.334098,0.965722
8972586085,-0.787842,-0.342980,0.955948
8972637013,-0.779004,-0.343339,0.946065
8972687955,-0.778953,-0.334465,0.945977
8972738882,-0.787842,-0.334468,0.936229
8972789819,-0.787914,-0.351844,0.956264
8972840755,-0.787995,-0.361090,0.936496
8972891686,-0.770198,-0.352195,0.956241
8972942624,-0.779118,-0.352377,0.936733
8972993563,-0.779096,-0.352387,0.936508
8973044501,-0.796904,-0.361277,0.916878
8973095427,-0.787997,-0.360704,0.956697
8973146363,-0.787975,-0.360713,0.956466
8973197300,-0.788119,-0.370124,0.927273
8973248230,-0.779199,-0.361430,0.927060
8973299161,-0.787996,-0.360897,0.946594
8973350089,-0.796905,-0.361084,0.926972
8973401018,-0.788056,-0.369959,0.936698
8973451945,-0.779230,-0.370120,0.937024
8973502871,-0.787934,-0.352028,0.946392
8973553796,-0.779179,-0.369757,0.956656
8973604722,-0.788017,-0.360887,0.946822
8973655655,-0.779045,-0.352024,0.956138
8973706584,-0.779096,-0.352387,0.936508
8973757513,-0.787964,-0.352400,0.926536
8973808435,-0.779025,-0.351840,0.966009
8973859372,-0.778984,-0.343155,0.955936
8973910309,-0.778933,-0.334281,0.955849
8973961238,-0.787824,-0.325578,0.936477
8974012170,-0.787791,-0.334106,0.955861
8974063095,-0.770095,-0.334640,0.945965
8974114030,-0.779056,-0.352019,0.956253
8974164954,-0.787851,-0.343169,0.945962
8974215877,-0.779087,-0.352198,0.946494
8974266802,-0.779127,-0.352566,0.926746
8974317738,-0.779024,-0.343523,0.936194
8974368665,-0.770177,-0.343693,0.936294
8974419595,-0.779118,-0.352377,0.936733
8974521460,-0.787944,-0.352216,0.936407
8974572386,-0.787996,-0.360897,0.946594
8974623329,-0.787945,-0.352023,0.946506
8974674265,-0.788016,-0.361081,0.936721
8974725203,-0.788027,-0.361076,0.936834
8974776140,-0.788067,-0.369954,0.936810
8974827074,-0.796893,-0.361282,0.916768
8974878004,-0.779106,-0.352575,0.926524
8974928942,-0.796791,-0.352046,0.936306
8974979869,-0.787944,-0.352216,0.936407
8975030804,-0.779065,-0.352208,0.946266
8975081743,-0.788037,-0.369582,0.956668
8975132677,-0.787842,-0.342980,0.955948
8975183607,-0.796731,-0.342983,0.946202
8975234541,-0.787965,-0.352207,0.936632
8975285469,-0.779035,-0.343518,0.936306
8975336395,-0.787842,-0.342980,0.955948
8975387314,-0.787934,-0.352028,0.946392
8975438252,-0.787831,-0.334474,0.936116
8975489182,-0.787874,-0.342965,0.956293
8975540119,-0.787843,-0.334274,0.946330
8975591077,-0.787852,-0.342975,0.956063
8975641995,-0.787873,-0.343159,0.946190
8975692927,-0.779055,-0.352213,0.946153
8975743862,-0.779035,-0.343518,0.936306
8975794794,-0.779147,-0.361261,0.936597
8975845735,-0.796854,-0.360721,0.946605
8975896678,-0.787975,-0.352395,0.926647
8975947612,-0.788047,-0.361260,0.926960
8975998546,-0.779209,-0.370129,0.936799
8976049476,-0.788046,-0.361453,0.916866
8976100406,-0.779168,-0.361444,0.926726
8976151344,-0.787995,-0.361090,0.936496
8976202282,-0.788016,-0.361081,0.936721
8976253213,-0.779159,-0.352552,0.927080
8976304146,-0.779190,-0.361242,0.937047
8976355081,-0.779251,-0.370304,0.927150
8976406014,-0.779147,-0.361261,0.936597
8976456949,-0.787954,-0.352212,0.936519
8976507876,-0.788078,-0.369950,0.936923
8976558807,-0.779209,-0.370129,0.936799
8976609739,-0.779169,-0.361251,0.936822
8976660669,-0.779147,-0.361261,0.936597
8976711606,-0.787882,-0.343348,0.936205
8976762539,-0.787934,-0.352028,0.946392
8976813471,-0.778962,-0.334654,0.935992
8976864405,-0.787904,-0.343338,0.936430
8976915342,-0.787822,-0.334285,0.946102
8976966281,-0.787925,-0.351839,0.956380
8977017228,-0.770116,-0.334630,0.946193
8977068173,-0.787914,-0.343333,0.936543
8977119120,-0.787894,-0.343149,0.946418
8977170068,-0.779076,-0.352203,0.946380
8977221003,-0.787985,-0.360901,0.946480
8977271939,-0.779076,-0.352203,0.946380
8977322877,-0.779169,-0.361251,0.936822
8977373813,-0.788028,-0.360883,0.946935
8977424744,-0.787985,-0.360901,0.946480
8977475677,-0.788016,-0.361081,0.936721
8977526616,-0.779229,-0.370313,0.926928
8977577551,-0.788036,-0.361264,0.926849
8977628482,-0.787975,-0.352395,0.926647
8977679418,-0.788098,-0.370133,0.927051
8977730358,-0.788047,-0.369770,0.946682
8977781292,-0.788027,-0.361076,0.936834
8977832228,-0.796894,-0.361089,0.926860
8977883161,-0.779097,-0.352193,0.946608
8977934097,-0.779220,-0.370125,0.936911
8977985031,-0.788036,-0.369775,0.946568
8978035974,-0.787944,-0.352216,0.936407
8978086901,-0.779138,-0.361072,0.946582
8978137833,-0.779096,-0.352387,0.936508
8978188773,-0.787945,-0.352023,0.946506
8978239696,-0.779199,-0.361430,0.927060
8978290633,-0.779169,-0.361251,0.936822
8978341570,-0.787995,-0.352579,0.916774
8978392509,-0.796895,-0.369407,0.956680
8978443450,-0.787996,-0.360897,0.946594
8978494396,-0.788047,-0.369770,0.946682
8978545327,-0.779199,-0.369941,0.946784
8978596265,-0.788027,-0.361076,0.936834
8978647208,-0.788047,-0.361260,0.926960
8978698147,-0.787964,-0.352400,0.926536
8978749087,-0.788016,-0.361081,0.936721
8978800033,-0.788005,-0.361085,0.936609
8978850981,-0.787956,-0.352018,0.946620
8978901925,-0.779107,-0.352382,0.936620
8978952870,-0.779229,-0.370313,0.926928
8979003814,-0.788057,-0.369766,0.946795
8979054765,-0.779169,-0.361251,0.936822
8979105708,-0.796894,-0.361089,0.926860
8979156650,-0.788027,-0.361076,0.936834
8979207589,-0.787964,-0.352400,0.926536
8979258529,-0.779199,-0.361430,0.927060
8979309468,-0.788047,-0.361260,0.926960
8979360417,-0.788027,-0.361076,0.936834
8979411361,-0.788016,-0.361081,0.936721
8979462298,-0.770372,-0.370296,0.937012
8979513243,-0.796874,-0.360905,0.936733
8979564188,-0.779147,-0.361261,0.936597
8979615142,-0.770505,-0.388222,0.927431
8979666074,-0.779169,-0.361251,0.936822
8979717015,-0.779251,-0.370304,0.927150
8979767954,-0.779148,-0.361068,0.946696
8979818895,-0.787996,-0.360897,0.946594
8979869837,-0.779147,-0.361261,0.936597
8979920773,-0.788017,-0.360887,0.946822
8979971705,-0.770280,-0.361248,0.946570
8980022645,-0.779169,-0.361251,0.936822
8980073584,-0.788026,-0.361269,0.926738
8980124516,-0.779169,-0.361251,0.936822
8980175451,-0.779158,-0.361256,0.936710
8980226383,-0.779220,-0.370125,0.936911
8980277312,-0.797071,-0.378998,0.917721
8980328247,-0.779189,-0.361435,0.926948
8980379184,-0.779251,-0.370304,0.927150
8980430116,-0.779281,-0.378994,0.937113
8980481053,-0.770382,-0.370484,0.927027
8980531985,-0.779096,-0.352387,0.936508
8980582911,-0.779148,-0.361068,0.946696
8980633843,-0.779168,-0.361444,0.926726
8980684783,-0.788159,-0.379002,0.927252
8980735720,-0.788129,-0.370313,0.917288
8980786658,-0.779333,-0.379165,0.927574
8980837590,-0.788016,-0.361081,0.936721
8980888528,-0.779271,-0.378806,0.947100
8980939481,-0.797030,-0.378630,0.937474
8980990423,-0.788047,-0.361260,0.926960
8981041364,-0.779178,-0.361440,0.926837
8981092304,-0.779199,-0.361430,0.927060
8981143241,-0.779301,-0.379178,0.927241
8981194182,-0.788057,-0.369766,0.946795
8981245126,-0.788068,-0.369761,0.946909
8981296070,-0.770382,-0.370291,0.937125
8981347017,-0.788129,-0.370313,0.917288
8981397952,-0.770341,-0.370117,0.946772
8981448897,-0.788026,-0.361269,0.926738
8981499833,-0.779147,-0.361261,0.936597
8981551780,-0.788038,-0.361071,0.936946
8981602722,-0.788119,-0.370124,0.927273
8981653661,-0.779281,-0.378994,0.937113
8981704606,-0.788119,-0.370124,0.927273
8981755541,-0.779209,-0.370129,0.936799
8981806481,-0.788161,-0.378810,0.937350
8981857423,-0.770382,-0.370291,0.937125
8981908368,-0.788047,-0.361260,0.926960
8981959309,-0.788005,-0.361085,0.936609
8982010248,-0.788026,-0.361269,0.926738
8982061188,-0.779199,-0.369941,0.946784
8982112119,-0.779261,-0.370300,0.927261
8982163057,-0.779189,-0.361435,0.926948
8982214003,-0.787985,-0.360901,0.946480
8982264938,-0.779312,-0.379173,0.927352
8982315864,-0.779261,-0.370300,0.927261
8982366801,-0.788057,-0.369766,0.946795
8982417736,-0.779188,-0.361628,0.916855
8982468669,-0.788016,-0.361081,0.936721
8982519597,-0.770352,-0.370112,0.946886
8982570533,-0.779251,-0.370304,0.927150
8982621472,-0.788129,-0.370313,0.917288
8982672415,-0.779281,-0.378994,0.937113
8982723363,-0.770300,-0.361431,0.936698
8982774314,-0.779251,-0.370304,0.927150
8982825264,-0.788110,-0.378447,0.956985
8982876208,-0.788067,-0.361444,0.917086
8982927156,-0.779229,-0.370313,0.926928
8982978107,-0.779169,-0.361251,0.936822
8983029051,-0.779199,-0.361430,0.927060
8983079993,-0.788028,-0.360883,0.946935
8983130934,-0.788130,-0.370120,0.927384
8983181874,-0.796887,-0.360707,0.946947
8983232816,-0.779169,-0.361251,0.936822
8983283758,-0.779231,-0.369928,0.947125
8983334699,-0.779210,-0.361426,0.927171
8983385639,-0.779199,-0.361624,0.916965
8983436580,-0.770352,-0.370112,0.946886
8983487514,-0.779199,-0.361430,0.927060
8983538460,-0.787914,-0.351844,0.956264
8983589406,-0.779077,-0.352010,0.956483
8983640353,-0.779056,-0.352019,0.956253
8983691294,-0.779139,-0.352368,0.936958
8983742233,-0.787914,-0.343333,0.936543
8983793167,-0.779065,-0.352208,0.946266
8983844108,-0.779055,-0.352213,0.946153
8983895046,-0.779241,-0.370116,0.937136
8983945991,-0.787995,-0.352579,0.916774
8983996932,-0.779138,-0.361072,0.946582
8984047857,-0.779169,-0.361251,0.936822
8984098810,-0.779272,-0.378613,0.957204
8984149715,-0.770341,-0.361606,0.927048
8984200647,-0.788088,-0.369945,0.937036
8984251584,-0.797008,-0.378639,0.937249
8984302524,-0.770382,-0.370484,0.927027
8984353457,-0.779251,-0.370304,0.927150
8984404389,-0.779353,-0.379541,0.907604
8984455320,-0.788201,-0.379178,0.917600
8984506261,-0.779332,-0.387867,0.937202
8984557197,-0.779405,-0.388222,0.917790
8984608136,-0.779343,-0.387863,0.937315
8984659077,-0.779240,-0.370309,0.927039
8984710015,-0.788181,-0.378994,0.927475
8984760956,-0.788109,-0.370129,0.927162
8984811896,-0.788101,-0.369748,0.947251
8984862839,-0.779158,-0.361256,0.936710
8984913782,-0.779251,-0.370304,0.927150
8984964749,-0.788130,-0.370120,0.927384
8985015665,-0.779425,-0.388406,0.907915
8985066608,-0.779394,-0.388227,0.917680
8985117553,-0.779445,-0.397100,0.917772
8985168496,-0.779414,-0.388410,0.907806
8985219448,-0.788416,-0.406157,0.898347
8985270407,-0.788396,-0.405973,0.908221
8985321363,-0.770689,-0.406512,0.898217
8985372311,-0.788324,-0.388599,0.888176
8985423260,-0.788417,-0.405966,0.908438
8985474204,-0.797172,-0.396745,0.917905
8985525146,-0.788345,-0.397100,0.908128
8985576085,-0.779405,-0.388222,0.917790
8985627031,-0.779301,-0.379178,0.927241
8985677969,-0.788109,-0.370129,0.927162
8985728913,-0.779251,-0.370304,0.927150
8985779856,-0.788119,-0.370124,0.927273
8985830794,-0.796967,-0.369954,0.927173
8985881741,-0.788141,-0.370116,0.927496
8985932680,-0.779302,-0.370667,0.907511
8985983614,-0.788182,-0.370483,0.907740
8986034549,-0.788243,-0.387863,0.927676
8986085489,-0.788180,-0.379186,0.917380
8986136433,-0.779342,-0.379545,0.907496
8986187373,-0.779384,-0.388039,0.927665
8986238317,-0.788079,-0.369757,0.947023
8986289255,-0.779313,-0.378981,0.937451
8986340199,-0.796978,-0.369949,0.927285
8986391141,-0.788068,-0.369761,0.946909
8986442088,-0.788099,-0.369941,0.937148
8986493022,-0.796956,-0.369958,0.927062
8986543967,-0.779169,-0.361251,0.936822
8986594908,-0.779210,-0.369937,0.946898
8986645850,-0.788026,-0.361269,0.926738
8986696786,-0.788110,-0.369936,0.937261
8986747732,-0.779301,-0.379178,0.927241
8986798663,-0.770433,-0.370847,0.907391
8986849607,-0.779241,-0.370116,0.937136
8986900548,-0.779251,-0.370112,0.937249
8986951493,-0.779292,-0.378990,0.937226
8987002439,-0.779312,-0.379173,0.927352
8987053383,-0.779301,-0.379178,0.927241
8987104320,-0.788180,-0.379186,0.917380
8987155256,-0.779476,-0.397280,0.908008
8987206197,-0.779527,-0.406152,0.908101
8987257133,-0.770628,-0.397451,0.908105
8987308074,-0.770658,-0.406332,0.907981
8987359020,-0.770659,-0.406140,0.918072
8987409964,-0.779548,-0.406145,0.908318
8987460907,-0.788314,-0.396920,0.917893
8987511847,-0.779568,-0.406329,0.898443
8987562797,-0.779394,-0.388227,0.917680
8987613735,-0.779446,-0.396908,0.927867
8987664670,-0.788170,-0.378998,0.927363
8987715612,-0.779292,-0.378990,0.937226
8987766553,-0.779363,-0.379537,0.907713
8987817494,-0.779363,-0.388047,0.927442
8987868432,-0.770679,-0.406324,0.908198
8987919370,-0.770617,-0.397455,0.907996
8987970310,-0.779548,-0.406145,0.908318
8988021251,-0.779476,-0.397280,0.908008
8988072191,-0.779537,-0.406149,0.908209
8988123134,-0.779527,-0.406152,0.908101
8988174074,-0.779599,-0.415018,0.908411
8988225010,-0.779599,-0.415018,0.908411
8988275957,-0.770741,-0.415193,0.908400
8988326898,-0.779620,-0.415011,0.908628
8988377838,-0.779589,-0.414831,0.918395
8988428788,-0.788428,-0.405962,0.908547
8988479728,-0.770627,-0.397643,0.898015
8988530668,-0.779445,-0.388590,0.898039
8988581616,-0.779425,-0.396916,0.927644
8988632557,-0.797058,-0.379195,0.907519
8988683499,-0.779375,-0.387851,0.937653
8988734444,-0.779394,-0.388227,0.917680
8988785395,-0.796956,-0.369958,0.927062
8988836336,-0.797040,-0.378818,0.927486
8988887266,-0.779323,-0.379169,0.927463
8988938204,-0.788109,-0.370129,0.927162
8988989145,-0.779291,-0.370672,0.907402
8989040089,-0.788118,-0.370317,0.917178
8989091030,-0.788161,-0.378810,0.937350
8989141970,-0.779354,-0.379349,0.917698
8989192904,-0.797069,-0.379190,0.907627
8989243837,-0.788140,-0.370308,0.917398
8989294778,-0.788141,-0.370116,0.927496
8989345711,-0.779405,-0.388222,0.917790
8989396661,-0.797019,-0.378635,0.937362
8989447606,-0.788099,-0.369941,0.937148
8989498537,-0.788346,-0.405418,0.937955
8989549481,-0.779332,-0.379357,0.917478
8989600419,-0.788304,-0.396733,0.927878
8989651355,-0.779375,-0.387851,0.937653
8989702296,-0.779394,-0.388227,0.917680
8989753237,-0.788243,-0.387863,0.927676
8989804184,-0.788273,-0.388235,0.907818
8989855122,-0.797060,-0.379002,0.917611
8989906068,-0.779507,-0.405969,0.917973
8989957015,-0.797224,-0.397109,0.898264
8990007963,-0.806041,-0.396566,0.918026
8990058908,-0.788294,-0.396737,0.927767
8990109851,-0.788221,-0.387871,0.927454
8990160793,-0.788273,-0.388235,0.907818
8990211732,-0.779426,-0.388214,0.918010
8990262672,-0.797203,-0.396925,0.908140
8990313616,-0.788232,-0.387867,0.927565
8990364558,-0.788241,-0.388055,0.917581
8990415500,-0.779405,-0.388222,0.917790
8990466444,-0.788262,-0.388239,0.907709
8990517369,-0.770536,-0.388402,0.917668
8990568332,-0.788397,-0.405782,0.918315
8990619252,-0.779425,-0.388406,0.907915
8990670200,-0.788294,-0.388227,0.908035
8990721147,-0.788252,-0.388051,0.917691
8990772088,-0.779436,-0.388402,0.908023
8990823039,-0.779456,-0.396904,0.927978
8990873986,-0.788201,-0.379178,0.917600
8990924935,-0.797132,-0.387868,0.917923
8990975875,-0.779415,-0.388218,0.917900
8991026814,-0.788212,-0.379173,0.917709
8991077752,-0.788283,-0.388231,0.907926
8991128692,-0.779405,-0.388222,0.917790
8991179627,-0.788274,-0.388043,0.917911
8991230565,-0.788201,-0.379178,0.917600
8991281498,-0.797041,-0.378626,0.937587
8991332426,-0.779354,-0.379349,0.917698
8991383364,-0.797069,-0.379190,0.907627
8991434303,-0.797111,-0.387876,0.917703
8991485246,-0.788325,-0.396916,0.918003
8991536184,-0.779456,-0.397096,0.917882
8991587125,-0.779415,-0.396728,0.937629
8991638065,-0.788283,-0.388231,0.907926
8991688998,-0.788274,-0.388043,0.917911
8991739936,-0.788294,-0.396737,0.927767
8991790874,-0.788304,-0.396733,0.927878
8991841813,-0.788254,-0.387859,0.927788
8991892747,-0.797203,-0.396925,0.908140
8991943689,-0.788274,-0.388043,0.917911
8991994636,-0.788274,-0.388043,0.917911
8992045583,-0.779437,-0.388018,0.928221
8992096528,-0.788274,-0.388043,0.917911
8992147472,-0.788243,-0.387863,0.927676
8992198410,-0.788314,-0.396920,0.917893
8992249349,-0.788345,-0.397100,0.908128
8992300278,-0.779395,-0.388034,0.927776
8992351213,-0.797132,-0.387868,0.917923
8992402155,-0.788263,-0.388047,0.917801
8992453096,-0.779457,-0.388394,0.908240
8992504040,-0.788326,-0.396725,0.928101
8992554978,-0.797174,-0.396553,0.928001
8992605913,-0.797091,-0.379182,0.907845
8992656853,-0.788211,-0.379366,0.907616
8992707794,-0.788285,-0.388039,0.918021
8992758724,-0.797111,-0.387876,0.917703
8992809651,-0.788345,-0.397100,0.908128
8992860585,-0.779466,-0.397092,0.917991
8992911525,-0.779486,-0.397276,0.908116
8992962463,-0.788222,-0.379362,0.907724
8993013392,-0.788274,-0.388043,0.917911
8993064327,-0.788252,-0.388051,0.917691
8993115258,-0.797152,-0.396561,0.927779
8993166194,-0.788396,-0.405973,0.908221
8993217135,-0.779537,-0.406149,0.908209
8993268071,-0.788345,-0.397100,0.908128
8993319007,-0.788417,-0.405966,0.908438
8993369939,-0.788365,-0.397284,0.898253
8993420874,-0.788345,-0.397100,0.908128
8993471808,-0.788408,-0.405778,0.918425
8993522726,-0.797214,-0.396921,0.908248
8993573657,-0.770638,-0.397447,0.908213
8993624582,-0.788376,-0.397280,0.898360
8993675513,-0.788304,-0.388415,0.898051
8993726443,-0.788356,-0.397096,0.908237
8993777368,-0.797172,-0.396745,0.917905
8993828306,-0.788397,-0.405782,0.918315
8993879239,-0.788417,-0.405966,0.908438
8993930172,-0.788408,-0.405778,0.918425
8993981100,-0.788417,-0.405966,0.908438
8994032039,-0.788294,-0.388227,0.908035
8994082972,-0.788386,-0.405786,0.918205
8994133908,-0.797203,-0.396925,0.908140
8994184839,-0.797131,-0.388060,0.907829
8994235781,-0.788283,-0.388231,0.907926
8994286722,-0.779497,-0.397272,0.908225
8994337654,-0.779559,-0.406141,0.908427
8994388586,-0.788327,-0.388215,0.908361
8994439518,-0.788326,-0.396725,0.928101
8994490456,-0.779333,-0.379165,0.927574
8994541393,-0.797143,-0.387863,0.918033
8994592327,-0.779364,-0.387855,0.937540
8994643254,-0.779405,-0.388030,0.927887
8994694191,-0.797193,-0.405247,0.937854
8994745126,-0.788212,-0.379173,0.917709
8994796054,-0.788283,-0.396740,0.927656
8994846984,-0.788346,-0.396909,0.918223
8994897926,-0.779497,-0.397272,0.908225
8994948865,-0.779548,-0.406145,0.908318
8994999806,-0.788346,-0.405418,0.937955
8995050742,-0.788406,-0.405970,0.908330
8995101671,-0.779508,-0.405777,0.928068
8995152608,-0.779508,-0.405777,0.928068
8995203546,-0.788345,-0.397100,0.908128
8995254485,-0.770618,-0.397263,0.918090
8995305420,-0.779548,-0.406145,0.908318
8995356349,-0.788304,-0.388415,0.898051
8995407285,-0.788315,-0.396729,0.927990
8995458210,-0.788334,-0.397104,0.908019
8995509143,-0.788294,-0.388227,0.908035
8995560078,-0.770700,-0.406508,0.898324
8995611013,-0.805980,-0.387696,0.917825
8995661945,-0.779497,-0.397272,0.908225
8995712875,-0.788416,-0.406157,0.898347
8995763799,-0.788356,-0.397096,0.908237
8995814734,-0.779436,-0.388210,0.918120
8995865669,-0.788315,-0.396729,0.927990
8995916640,-0.797132,-0.387868,0.917923
8995967542,-0.779405,-0.388030,0.927887
8996018469,-0.788315,-0.396729,0.927990
8996069400,-0.788315,-0.396729,0.927990
8996120335,-0.788285,-0.388039,0.918021
8996171255,-0.797183,-0.396741,0.918015
8996222191,-0.788325,-0.396916,0.918003
8996273130,-0.770618,-0.397263,0.918090
8996324062,-0.788201,-0.379178,0.917600
8996374993,-0.797082,-0.378994,0.917831
8996425929,-0.797113,-0.379173,0.908062
8996476862,-0.788252,-0.388051,0.917691
8996527795,-0.788314,-0.396920,0.917893
8996578736,-0.788314,-0.396920,0.917893
8996629668,-0.788438,-0.406150,0.898562
8996680595,-0.788356,-0.397096,0.908237
8996731533,-0.806112,-0.405623,0.908244
8996782466,-0.788283,-0.388231,0.907926
8996833398,-0.788388,-0.405594,0.928303
8996884327,-0.788427,-0.406153,0.898454
8996935257,-0.797173,-0.388235,0.898170
8996986191,-0.797205,-0.396733,0.918235
8997037121,-0.788376,-0.397280,0.898360
8997088054,-0.779427,-0.388022,0.928110
8997138965,-0.788397,-0.405782,0.918315
8997189889,-0.788325,-0.396916,0.918003
8997240817,-0.788345,-0.397100,0.908128
8997291746,-0.788335,-0.396912,0.918113
8997342673,-0.788438,-0.414468,0.928393
8997393596,-0.788417,-0.405966,0.908438
8997444527,-0.797132,-0.387868,0.917923
8997495458,-0.788294,-0.388227,0.908035
8997546389,-0.788335,-0.396912,0.918113
8997597317,-0.788252,-0.388051,0.917691
8997648240,-0.797183,-0.396741,0.918015
8997699168,-0.788305,-0.388223,0.908143
8997750087,-0.797091,-0.379182,0.907845
8997801012,-0.788192,-0.378990,0.927586
8997851941,-0.788263,-0.388047,0.917801
8997902862,-0.797121,-0.396381,0.937540
8997953784,-0.788273,-0.388235,0.907818
8998004695,-0.788304,-0.396733,0.927878
8998055603,-0.779292,-0.378990,0.937226
8998106523,-0.788346,-0.396909,0.918223
8998157427,-0.779476,-0.397280,0.908008
8998208342,-0.779487,-0.397084,0.918211
8998259261,-0.779446,-0.396908,0.927867
8998310175,-0.779477,-0.397088,0.918101
8998361095,-0.779467,-0.396900,0.928089
8998412006,-0.788326,-0.396725,0.928101
8998462920,-0.788263,-0.388047,0.917801
8998513832,-0.788386,-0.405786,0.918205
8998564749,-0.788294,-0.388227,0.908035
8998615665,-0.779456,-0.396904,0.927978
8998666577,-0.788335,-0.396912,0.918113
8998717491,-0.779477,-0.397088,0.918101
8998768401,-0.770608,-0.397267,0.917980
8998819306,-0.779466,-0.397092,0.917991
8998870212,-0.788406,-0.405970,0.908330
8998921128,-0.788337,-0.396721,0.928212
8998972034,-0.788233,-0.387675,0.937664
8999022943,-0.788274,-0.388043,0.917911
8999073859,-0.788285,-0.388039,0.918021
8999124770,-0.797123,-0.387680,0.927911
8999175683,-0.788325,-0.396916,0.918003
8999226594,-0.797029,-0.378823,0.927375
8999277496,-0.788130,-0.370120,0.927384
8999328407,-0.788058,-0.361255,0.927071
8999379323,-0.779282,-0.370291,0.927484
8999430236,-0.796969,-0.369761,0.937272
8999481150,-0.788140,-0.370308,0.917398
8999532062,-0.788203,-0.378985,0.927697
8999582971,-0.788274,-0.388043,0.917911
8999633884,-0.788243,-0.387863,0.927676
8999684799,-0.797143,-0.387863,0.918033
8999735714,-0.788315,-0.396729,0.927990
8999786631,-0.788172,-0.378806,0.937463
8999837548,-0.788201,-0.379178,0.917600
8999888462,-0.788212,-0.379173,0.917709
8999939387,-0.788315,-0.396729,0.927990
8999990312,-0.788274,-0.388043,0.917911
9000041233,-0.788244,-0.387671,0.937777
9000092158,-0.788326,-0.396725,0.928101
9000143082,-0.797164,-0.388047,0.908155
9000194001,-0.788346,-0.396909,0.918223
9000244919,-0.788345,-0.397100,0.908128
9000295839,-0.788356,-0.397096,0.908237
9000346759,-0.788203,-0.378985,0.927697
9000397685,-0.788264,-0.387855,0.927899
9000448614,-0.797114,-0.387492,0.937901
9000499541,-0.788316,-0.388219,0.908252
9000550469,-0.788264,-0.387855,0.927899
9000601400,-0.797102,-0.379178,0.907953
9000652327,-0.779508,-0.397268,0.908334
9000703257,-0.797112,-0.387684,0.927799
9000754195,-0.797112,-0.387684,0.927799
9000805122,-0.788285,-0.388039,0.918021
9000856054,-0.797205,-0.396733,0.918235
9000906987,-0.797122,-0.387872,0.917813
9000957919,-0.797071,-0.378998,0.917721
9001008855,-0.788233,-0.379357,0.907833
9001059788,-0.788243,-0.387863,0.927676
9001110707,-0.797051,-0.378814,0.927598
9001161634,-0.788192,-0.378990,0.927586
9001212569,-0.788192,-0.378990,0.927586
9001263504,-0.788263,-0.388047,0.917801
9001314439,-0.788294,-0.388227,0.908035
9001365377,-0.788335,-0.396912,0.918113
9001416309,-0.779435,-0.396912,0.927755
9001467238,-0.788212,-0.379173,0.917709
9001518157,-0.797153,-0.388051,0.908046
9001569088,-0.788245,-0.379161,0.918039
9001620012,-0.797112,-0.387684,0.927799
9001670940,-0.779375,-0.379340,0.917918
9001721867,-0.788233,-0.387675,0.937664
9001772789,-0.788274,-0.388043,0.917911
9001823717,-0.788252,-0.388051,0.917691
9001874642,-0.788295,-0.388035,0.918131
9001925559,-0.788215,-0.378788,0.937913
9001976488,-0.788130,-0.370120,0.927384
9002027419,-0.779487,-0.397084,0.918211
9002078341,-0.788233,-0.387675,0.937664
9002129257,-0.797235,-0.397105,0.898372
9002180184,-0.788192,-0.378990,0.927586
9002231107,-0.788367,-0.397092,0.908345
9002282030,-0.797174,-0.396553,0.928001
9002332952,-0.788263,-0.388047,0.917801
9002383871,-0.788317,-0.388027,0.918351
9002434802,-0.779446,-0.388398,0.908132
9002485737,-0.788408,-0.405778,0.918425
9002536673,-0.797143,-0.387863,0.918033
9002587604,-0.788326,-0.396725,0.928101
9002638528,-0.797164,-0.388047,0.908155
9002689445,-0.788274,-0.388043,0.917911
9002740371,-0.779436,-0.388402,0.908023
9002791303,-0.788274,-0.388043,0.917911
9002842236,-0.797194,-0.396737,0.918125
9002893167,-0.788294,-0.388227,0.908035
9002944098,-0.788274,-0.388043,0.917911
9002995025,-0.797154,-0.387859,0.918143
9003045946,-0.797205,-0.396733,0.918235
9003096869,-0.797214,-0.396921,0.908248
9003147788,-0.797123,-0.387680,0.927911
9003198721,-0.797225,-0.396917,0.908357
9003249639,-0.797194,-0.396737,0.918125
9003300555,-0.805971,-0.387508,0.927811
9003351474,-0.797154,-0.387859,0.918143
9003402400,-0.797216,-0.396729,0.918345
9003453313,-0.806086,-0.396550,0.918466
9003504239,-0.788377,-0.397088,0.908454
9003555157,-0.779487,-0.397084,0.918211
9003606084,-0.788346,-0.396909,0.918223
9003657005,-0.788305,-0.388223,0.908143
9003707928,-0.788376,-0.397280,0.898360
9003758859,-0.797143,-0.387863,0.918033
9003809781,-0.797123,-0.387680,0.927911
9003860708,-0.788192,-0.378990,0.927586
9003911631,-0.788306,-0.388031,0.918241
9003962551,-0.788274,-0.388043,0.917911
9004013475,-0.797186,-0.388039,0.908372
9004064403,-0.770557,-0.388394,0.917888
9004115316,-0.788356,-0.397096,0.908237
9004166231,-0.788283,-0.388231,0.907926
9004217149,-0.797256,-0.405607,0.918326
9004268074,-0.788274,-0.388043,0.917911
9004319007,-0.788295,-0.388035,0.918131
9004369938,-0.788304,-0.396733,0.927878
9004420884,-0.797154,-0.387859,0.918143
9004471798,-0.797094,-0.378797,0.928043
9004522730,-0.788335,-0.396912,0.918113
9004573651,-0.788315,-0.396729,0.927990
9004624575,-0.788325,-0.396916,0.918003
9004675500,-0.788325,-0.396916,0.918003
9004726423,-0.788254,-0.387859,0.927788
9004777348,-0.788181,-0.378994,0.927475
9004828275,-0.788295,-0.388035,0.918131
9004879199,-0.788325,-0.388407,0.898265
9004930116,-0.779497,-0.397272,0.908225
9004981042,-0.788203,-0.378985,0.927697
9005031963,-0.779415,-0.388218,0.917900
9005082887,-0.788357,-0.405414,0.938068
9005133816,-0.805950,-0.387324,0.937688
9005184744,-0.797154,-0.387859,0.918143
9005235668,-0.797194,-0.396737,0.918125
9005286591,-0.788357,-0.396905,0.918333
9005337511,-0.797194,-0.396737,0.918125
9005388433,-0.788367,-0.397092,0.908345
9005439360,-0.788203,-0.378985,0.927697
9005490288,-0.797152,-0.396561,0.927779
9005541223,-0.788356,-0.397096,0.908237
9005592161,-0.797123,-0.387680,0.927911
9005643097,-0.788285,-0.388039,0.918021
9005694044,-0.797143,-0.387863,0.918033
9005744985,-0.797165,-0.387855,0.918253
9005795914,-0.797164,-0.396365,0.937990
9005846843,-0.779508,-0.397268,0.908334
9005897770,-0.797061,-0.370492,0.897874
9005948695,-0.779477,-0.397088,0.918101
9005999616,-0.788285,-0.388039,0.918021
9006050545,-0.788255,-0.379156,0.918149
9006101468,-0.788305,-0.388223,0.908143
9006152391,-0.797063,-0.378617,0.937812
9006203317,-0.788285,-0.388039,0.918021
9006254246,-0.788306,-0.388031,0.918241
9006305174,-0.797123,-0.387680,0.927911
9006356101,-0.797186,-0.388039,0.908372
9006407030,-0.797155,-0.396178,0.947982
9006457963,-0.788377,-0.397088,0.908454
9006508898,-0.779467,-0.396900,0.928089
9006559822,-0.770639,-0.397255,0.918310
9006610764,-0.779416,-0.388026,0.927999
9006661670,-0.788266,-0.387663,0.938002
9006712603,-0.788182,-0.378801,0.937575
9006763532,-0.797164,-0.396365,0.937990
9006814463,-0.788203,-0.378985,0.927697
9006865398,-0.788347,-0.396717,0.928324
9006916325,-0.797205,-0.396733,0.918235
9006967255,-0.788316,-0.388219,0.908252
9007018184,-0.788326,-0.396725,0.928101
9007069116,-0.779456,-0.396904,0.927978
9007120044,-0.797143,-0.387863,0.918033
9007170978,-0.788346,-0.396909,0.918223
9007221907,-0.797216,-0.396729,0.918345
9007272835,-0.779497,-0.397272,0.908225
9007323769,-0.788294,-0.388227,0.908035
9007374701,-0.797278,-0.405599,0.918546
9007425637,-0.788377,-0.397088,0.908454
9007476565,-0.797194,-0.396737,0.918125
9007527495,-0.788285,-0.388039,0.918021
9007578420,-0.788346,-0.396909,0.918223
9007629374,-0.788388,-0.397085,0.908562
9007680274,-0.779539,-0.405957,0.918303
9007731200,-0.788356,-0.397096,0.908237
9007782121,-0.779415,-0.388218,0.917900
9007833050,-0.788337,-0.388210,0.908469
9007883973,-0.797287,-0.405787,0.908559
9007934917,-0.788121,-0.369932,0.937373
9007985844,-0.788234,-0.379165,0.917929
9008036768,-0.788212,-0.379173,0.917709
9008087692,-0.788192,-0.378990,0.927586
9008138614,-0.788152,-0.370111,0.927607
9008189548,-0.788080,-0.361246,0.927294
9008240473,-0.779200,-0.361237,0.937160
9008291398,-0.796856,-0.352017,0.936981
9008342320,-0.788255,-0.387667,0.937890
9008393248,-0.788203,-0.378985,0.927697
9008444176,-0.788346,-0.396909,0.918223
9008495110,-0.788275,-0.387851,0.928010
9008546046,-0.797320,-0.405775,0.908885
9008596987,-0.788510,-0.415016,0.898871
9008647926,-0.788582,-0.423882,0.899180
9008698859,-0.797369,-0.414840,0.898882
9008749793,-0.788469,-0.414648,0.918627
9008800722,-0.779620,-0.415011,0.908628
9008851650,-0.797348,-0.414656,0.908760
9008902593,-0.797359,-0.414653,0.908869
9008953531,-0.788439,-0.405958,0.908656
9009004471,-0.788479,-0.414835,0.908640
9009055413,-0.797235,-0.405423,0.928203
9009106351,-0.779477,-0.397088,0.918101
9009157286,-0.779478,-0.396896,0.928200
9009208216,-0.779528,-0.397452,0.898456
9009259154,-0.788274,-0.388043,0.917911
9009310084,-0.788377,-0.405598,0.928191
9009361015,-0.770659,-0.397631,0.898337
9009411953,-0.788490,-0.414832,0.908749
9009462887,-0.788468,-0.414839,0.908531
9009513835,-0.779672,-0.423693,0.918817
9009564766,-0.788438,-0.406150,0.898562
9009615698,-0.779651,-0.415191,0.898859
9009666621,-0.779673,-0.415184,0.899074
9009717543,-0.788408,-0.405778,0.918425
9009768463,-0.779672,-0.415375,0.888981
9009819379,-0.779682,-0.415371,0.889087
9009870306,-0.797256,-0.405607,0.918326
9009921235,-0.779560,-0.405950,0.918523
9009972158,-0.788315,-0.396729,0.927990
9010023080,-0.779457,-0.388394,0.908240
9010074002,-0.779343,-0.379353,0.917588
9010124930,-0.788223,-0.379169,0.917819
9010175849,-0.797031,-0.370120,0.917739
9010226770,-0.788275,-0.387851,0.928010
9010277689,-0.797082,-0.378994,0.917831
9010328600,-0.788275,-0.387851,0.928010
9010379521,-0.788193,-0.378797,0.937688
9010430439,-0.788306,-0.396541,0.937979
9010481368,-0.788234,-0.379165,0.917929
9010532287,-0.797082,-0.378994,0.917831
9010583204,-0.797134,-0.387675,0.928022
9010634110,-0.788254,-0.387859,0.927788
9010685038,-0.788295,-0.388035,0.918131
9010735965,-0.788337,-0.396721,0.928212
9010786888,-0.797205,-0.396733,0.918235
9010837818,-0.797123,-0.387680,0.927911
9010888742,-0.797175,-0.388043,0.908264
9010939671,-0.797267,-0.397093,0.898694
9010990600,-0.797287,-0.405787,0.908559
9011041522,-0.788367,-0.397092,0.908345
9011092447,-0.797319,-0.414285,0.928627
9011143371,-0.788408,-0.405778,0.918425
9011194299,-0.797205,-0.396733,0.918235
9011245223,-0.788306,-0.388031,0.918241
9011296150,-0.779498,-0.397080,0.918321
9011347075,-0.788440,-0.405767,0.918755
9011397994,-0.788234,-0.379165,0.917929
9011448917,-0.797227,-0.396725,0.918455
9011499839,-0.788275,-0.387851,0.928010
9011550764,-0.788377,-0.397088,0.908454
9011601692,-0.797331,-0.405772,0.908993
9011652613,-0.779488,-0.396892,0.928312
9011703537,-0.779488,-0.388574,0.898468
9011754474,-0.788451,-0.405763,0.918865
9011805405,-0.788408,-0.397268,0.898682
9011856335,-0.797267,-0.405603,0.918436
9011907264,-0.779559,-0.406141,0.908427
9011958194,-0.788409,-0.405587,0.928525
9012009133,-0.779508,-0.397268,0.908334
9012060058,-0.797258,-0.396905,0.908683
9012110996,-0.779478,-0.396896,0.928200
9012161934,-0.770680,-0.405941,0.928391
9012212865,-0.779457,-0.388394,0.908240
9012263799,-0.788450,-0.405955,0.908764
9012314737,-0.779509,-0.397076,0.918431
9012365669,-0.797238,-0.396721,0.918565
9012416595,-0.779518,-0.397264,0.908442
9012467524,-0.779580,-0.406134,0.908644
9012518457,-0.788346,-0.396909,0.918223
9012569387,-0.788295,-0.388035,0.918131
9012620322,-0.788285,-0.388039,0.918021
9012671262,-0.788193,-0.378797,0.937688
9012722196,-0.788152,-0.370111,0.927607
9012773124,-0.797154,-0.387859,0.918143
9012824056,-0.797052,-0.378622,0.937699
9012874982,-0.788130,-0.370120,0.927384
9012925912,-0.788163,-0.370107,0.927718
9012976845,-0.779468,-0.388198,0.918450
9013027772,-0.788224,-0.378977,0.927920
9013078703,-0.788283,-0.388231,0.907926
9013129633,-0.788213,-0.378981,0.927809
9013180564,-0.805931,-0.378630,0.927832
9013231504,-0.797176,-0.387851,0.918363
9013282440,-0.788224,-0.378977,0.927920
9013333376,-0.797135,-0.379165,0.908279
9013384306,-0.788254,-0.379349,0.908050
9013435236,-0.797113,-0.379173,0.908062
9013486171,-0.797072,-0.378806,0.927820
9013537101,-0.788295,-0.388035,0.918131
9013588037,-0.797165,-0.387855,0.918253
9013638976,-0.797165,-0.387855,0.918253
9013689910,-0.797227,-0.396725,0.918455
9013740839,-0.797278,-0.405599,0.918546
9013791767,-0.788359,-0.388202,0.908687
9013842695,-0.797214,-0.396921,0.908248
9013893627,-0.788470,-0.406139,0.898884
9013944559,-0.797236,-0.396913,0.908465
9013995497,-0.806093,-0.396929,0.898383
9014046421,-0.779540,-0.397256,0.908659
9014097346,-0.788409,-0.405587,0.928525
9014148283,-0.797247,-0.396909,0.908574
9014199220,-0.797257,-0.397097,0.898586
9014250154,-0.779457,-0.388394,0.908240
9014301074,-0.797227,-0.396725,0.918455
9014352011,-0.788328,-0.388022,0.918461
9014402944,-0.797227,-0.396725,0.918455
9014453877,-0.788389,-0.396893,0.918663
9014504818,-0.788297,-0.387843,0.928233
9014555755,-0.788297,-0.387843,0.928233
9014606693,-0.788205,-0.370282,0.918058
9014657629,-0.779446,-0.388398,0.908132
9014708575,-0.779457,-0.388394,0.908240
9014759512,-0.779488,-0.396892,0.928312
9014810447,-0.779458,-0.388202,0.918340
9014861387,-0.788408,-0.397268,0.898682
9014912323,-0.788409,-0.405587,0.928525
9014963264,-0.797236,-0.396913,0.908465
9015014199,-0.779673,-0.415184,0.899074
9015065130,-0.779591,-0.406130,0.908753
9015116070,-0.788439,-0.405958,0.908656
9015167013,-0.788440,-0.405767,0.918755
9015217952,-0.788410,-0.397077,0.908780
9015268892,-0.797277,-0.397281,0.888707
9015319823,-0.788379,-0.396897,0.918553
9015370753,-0.788377,-0.397088,0.908454
9015421692,-0.797225,-0.396917,0.908357
9015472628,-0.788532,-0.415009,0.899085
9015523560,-0.788450,-0.405955,0.908764
9015574495,-0.797278,-0.405599,0.918546
9015625433,-0.788429,-0.405771,0.918645
9015676371,-0.788501,-0.406319,0.889109
9015727306,-0.797257,-0.397097,0.898586
9015778237,-0.797236,-0.396913,0.908465
9015829170,-0.797218,-0.396537,0.928447
9015880102,-0.788357,-0.396905,0.918333
9015931030,-0.788275,-0.387851,0.928010
9015981966,-0.779498,-0.397080,0.918321
9016032911,-0.788255,-0.379156,0.918149
9016083845,-0.797187,-0.387847,0.918473
9016134773,-0.797124,-0.379169,0.908171
9016185707,-0.797216,-0.396729,0.918345
9016236640,-0.797072,-0.378806,0.927820
9016287559,-0.796938,-0.361070,0.927305
9016338489,-0.788151,-0.370304,0.917508
9016389428,-0.788193,-0.378797,0.937688
9016440363,-0.788111,-0.369743,0.947365
9016491284,-0.788203,-0.378985,0.927697
9016542219,-0.779273,-0.370103,0.937474
9016593157,-0.788164,-0.369914,0.937824
9016644097,-0.788163,-0.370107,0.927718
9016695036,-0.788090,-0.361241,0.927405
9016745972,-0.788172,-0.370295,0.917728
9016796911,-0.788203,-0.378985,0.927697
9016847842,-0.788111,-0.361425,0.917526
9016898774,-0.779344,-0.379161,0.927686
9016949704,-0.788243,-0.379353,0.907942
9017000633,-0.805861,-0.369572,0.937622
9017051577,-0.788286,-0.387847,0.928122
9017102508,-0.788306,-0.388031,0.918241
9017153441,-0.788327,-0.388215,0.908361
9017204373,-0.779436,-0.388210,0.918120
9017255308,-0.797092,-0.387500,0.937676
9017306241,-0.788285,-0.388039,0.918021
9017357173,-0.788336,-0.388403,0.898373
9017408104,-0.788419,-0.405774,0.918535
9017459034,-0.788327,-0.388215,0.908361
9017509963,-0.797238,-0.396721,0.918565
9017560899,-0.788388,-0.397085,0.908562
9017611829,-0.797298,-0.405783,0.908667
9017662786,-0.788491,-0.414641,0.918847
9017713692,-0.779447,-0.388206,0.918230
9017764612,-0.797339,-0.414469,0.918748
9017815538,-0.788510,-0.415016,0.898871
9017866472,-0.797277,-0.397281,0.888707
9017917402,-0.797339,-0.414469,0.918748
9017968331,-0.788439,-0.405958,0.908656
9018019264,-0.788533,-0.414817,0.909184
9018070198,-0.788367,-0.397092,0.908345
9018121128,-0.788470,-0.406139,0.898884
9018172063,-0.806146,-0.405611,0.908570
9018222981,-0.788420,-0.405583,0.928637
9018273919,-0.797278,-0.405599,0.918546
9018324845,-0.788409,-0.405587,0.928525
9018375774,-0.788357,-0.396905,0.918333
9018426705,-0.788439,-0.405958,0.908656
9018477633,-0.788449,-0.414464,0.928504
9018528561,-0.788387,-0.397276,0.898467
9018579488,-0.788397,-0.405782,0.918315
9018630419,-0.788543,-0.415005,0.899193
9018681357,-0.788481,-0.406135,0.898991
9018732293,-0.788512,-0.406315,0.889215
9018783227,-0.797309,-0.405779,0.908776
9018834167,-0.797340,-0.405959,0.899003
9018885107,-0.788335,-0.396912,0.918113
9018936046,-0.788451,-0.405763,0.918865
9018986985,-0.788501,-0.414828,0.908857
9019037916,-0.806224,-0.405585,0.909331
9019088861,-0.788450,-0.405955,0.908764
9019139802,-0.797309,-0.405779,0.908776
9019190737,-0.797238,-0.396721,0.918565
9019241668,-0.788346,-0.396909,0.918223
9019292589,-0.797289,-0.405595,0.918656
9019343523,-0.814843,-0.387137,0.938037
9019394449,-0.806095,-0.396738,0.908477
9019445377,-0.806064,-0.396558,0.918246
9019496314,-0.814901,-0.387880,0.898300
9019547248,-0.806177,-0.405792,0.898800
9019598170,-0.797380,-0.414837,0.898990
9019649094,-0.788510,-0.415016,0.898871
9019700023,-0.797320,-0.405775,0.908885
9019750949,-0.806177,-0.405792,0.898800
9019801886,-0.788521,-0.415012,0.898978
9019852823,-0.797389,-0.415024,0.889005
9019903757,-0.788574,-0.415185,0.889417
9019954690,-0.788614,-0.424063,0.889407
9020005626,-0.797380,-0.414837,0.898990
9020056559,-0.788501,-0.414828,0.908857
9020107482,-0.797402,-0.414830,0.899204
9020158408,-0.788521,-0.415012,0.898978
9020209340,-0.797494,-0.432389,0.909381
9020260271,-0.779703,-0.423873,0.909047
9020311203,-0.788644,-0.432752,0.899382
9020362127,-0.779621,-0.414820,0.918725
9020413052,-0.788626,-0.423868,0.899609
9020463982,-0.788614,-0.424063,0.889407
9020514916,-0.788521,-0.415012,0.898978
9020565848,-0.788563,-0.415189,0.889311
9020616773,-0.788511,-0.414825,0.908966
9020667701,-0.779776,-0.432740,0.909358
9020718634,-0.788593,-0.432387,0.919030
9020769563,-0.788604,-0.423875,0.899395
9020820490,-0.788532,-0.415009,0.899085
9020871425,-0.788459,-0.406142,0.898776
9020922364,-0.788593,-0.423879,0.899287
9020973305,-0.788521,-0.415012,0.898978
9021024244,-0.788532,-0.415009,0.899085
9021075186,-0.797391,-0.414833,0.899097
9021126125,-0.797330,-0.414281,0.928739
9021177065,-0.788533,-0.414817,0.909184
9021228004,-0.788582,-0.423882,0.899180
9021278943,-0.788490,-0.406322,0.889003
9021329875,-0.797329,-0.405963,0.898895
9021380793,-0.797329,-0.405963,0.898895
9021431722,-0.788408,-0.397268,0.898682
9021482644,-0.788428,-0.405962,0.908547
9021533576,-0.806178,-0.414110,0.928639
9021584509,-0.788450,-0.405955,0.908764
9021635444,-0.797465,-0.423509,0.909506
9021686377,-0.797320,-0.405775,0.908885
9021737305,-0.797348,-0.414656,0.908760
9021788225,-0.797370,-0.414649,0.908978
9021839161,-0.788533,-0.414817,0.909184
9021890093,-0.797507,-0.423686,0.899836
9021941020,-0.797441,-0.423707,0.899192
9021991950,-0.797554,-0.432941,0.879740
9022042882,-0.770998,-0.442159,0.889575
9022093811,-0.771090,-0.451210,0.880004
9022144746,-0.788811,-0.441971,0.880454
9022195684,-0.779898,-0.442162,0.879918
9022246613,-0.779950,-0.450845,0.890106
9022297543,-0.779878,-0.441978,0.889799
9022348479,-0.779980,-0.451216,0.870239
9022399414,-0.779878,-0.441978,0.889799
9022450341,-0.788749,-0.441610,0.900013
9022501274,-0.779888,-0.441975,0.889905
9022552215,-0.788748,-0.441800,0.889916
9022603160,-0.780001,-0.459718,0.890202
9022654080,-0.779919,-0.450664,0.899881
9022705010,-0.788850,-0.451038,0.870354
9022755938,-0.771039,-0.442337,0.879906
9022806870,-0.779909,-0.442159,0.880023
9022857811,-0.779888,-0.441975,0.889905
9022908733,-0.788716,-0.441619,0.899691
9022959664,-0.788677,-0.432742,0.899704
9023010593,-0.779776,-0.424231,0.889607
9023061524,-0.779878,-0.441978,0.889799
9023112456,-0.779806,-0.432921,0.899585
9023163390,-0.779857,-0.441794,0.899679
9023214319,-0.788584,-0.423691,0.909276
9023265247,-0.779796,-0.432924,0.899477
9023316179,-0.788698,-0.432736,0.899919
9023367119,-0.779663,-0.414996,0.909063
9023418062,-0.788563,-0.415189,0.889311
9023469016,-0.797411,-0.415017,0.889217
9023519974,-0.797247,-0.396909,0.908574
9023570931,-0.797247,-0.396909,0.908574
9023621883,-0.797145,-0.387671,0.928133
9023672833,-0.806078,-0.387852,0.908710
9023723787,-0.797094,-0.378797,0.928043
9023774716,-0.797236,-0.396913,0.908465
9023825648,-0.788448,-0.406146,0.898669
9023876576,-0.788450,-0.397445,0.889014
9023927502,-0.788429,-0.397452,0.888801
9023978430,-0.788521,-0.415012,0.898978
9024029361,-0.779602,-0.405935,0.918963
9024080292,-0.779704,-0.415173,0.899396
9024131215,-0.788574,-0.423504,0.919269
9024182147,-0.770792,-0.406857,0.879099
9024233076,-0.779745,-0.424051,0.899383
9024284011,-0.788603,-0.424066,0.889301
9024334943,-0.788582,-0.423882,0.899180
9024385869,-0.779652,-0.415000,0.908954
9024436805,-0.779714,-0.423870,0.909156
9024487744,-0.779694,-0.415177,0.899289
9024538682,-0.797350,-0.414465,0.918858
9024589618,-0.779601,-0.406126,0.908861
9024640560,-0.788603,-0.424066,0.889301
9024691497,-0.788603,-0.415557,0.869547
9024742429,-0.788511,-0.414825,0.908966
9024793350,-0.788604,-0.423875,0.899395
9024844270,-0.788605,-0.423684,0.909494
9024895199,-0.779755,-0.424238,0.889395
9024946134,-0.788573,-0.423695,0.909168
9024997067,-0.788541,-0.415196,0.889099
9025048004,-0.797463,-0.423700,0.899406
9025098936,-0.788604,-0.423875,0.899395
9025149869,-0.788645,-0.432561,0.909478
9025200795,-0.779704,-0.415173,0.899396
9025251718,-0.779796,-0.424415,0.879724
9025302646,-0.797545,-0.432754,0.889726
9025353580,-0.788594,-0.423688,0.909385
9025404507,-0.779724,-0.423867,0.909265
9025455431,-0.797423,-0.423332,0.919170
9025506350,-0.779652,-0.415000,0.908954
9025557280,-0.788543,-0.415005,0.899193
9025608211,-0.788521,-0.415012,0.898978
9025659140,-0.788460,-0.405951,0.908873
9025710065,-0.788615,-0.423872,0.899502
9025760990,-0.788419,-0.405774,0.918535
9025811914,-0.788593,-0.423879,0.899287
9025862844,-0.788635,-0.424056,0.889619
9025913775,-0.788543,-0.415005,0.899193
9025964706,-0.788624,-0.424059,0.889513
9026015636,-0.788666,-0.432745,0.899596
9026066557,-0.788695,-0.433116,0.879728
9026117484,-0.788604,-0.423875,0.899395
9026168410,-0.797442,-0.415198,0.879441
9026219327,-0.797423,-0.423332,0.919170
9026270259,-0.788501,-0.414828,0.908857
9026321197,-0.788584,-0.423691,0.909276
9026372126,-0.779837,-0.433102,0.889809
9026423055,-0.797494,-0.432389,0.909381
9026473979,-0.788604,-0.423875,0.899395
9026524929,-0.779642,-0.406494,0.889098
9026575839,-0.788511,-0.414825,0.908966
9026626773,-0.797381,-0.414646,0.909086
9026677703,-0.797321,-0.405584,0.918987
9026728632,-0.788460,-0.405951,0.908873
9026779551,-0.797300,-0.397081,0.899016
9026830472,-0.797104,-0.378985,0.918051
9026881397,-0.797229,-0.396533,0.928558
9026932317,-0.797249,-0.396717,0.918675
9026983247,-0.788153,-0.369918,0.937711
9027034176,-0.788286,-0.387847,0.928122
9027085110,-0.805901,-0.369940,0.917861
9027136035,-0.788163,-0.370107,0.927718
9027186964,-0.788070,-0.361057,0.937284
9027237906,-0.788133,-0.369734,0.947593
9027288835,-0.788214,-0.370470,0.908066
9027339764,-0.796960,-0.361061,0.927528
9027390689,-0.797083,-0.378801,0.927932
9027441612,-0.788195,-0.370093,0.928052
9027492541,-0.797053,-0.370111,0.917959
9027543476,-0.806015,-0.387492,0.928256
9027594412,-0.788379,-0.396897,0.918553
9027645339,-0.797176,-0.387851,0.918363
9027696261,-0.797310,-0.405588,0.918877
9027747194,-0.788481,-0.406135,0.898991
9027798124,-0.806056,-0.387860,0.908493
9027849053,-0.797424,-0.414822,0.899419
9027899989,-0.788420,-0.405583,0.928637
9027950921,-0.797340,-0.405959,0.899003
9028001856,-0.788512,-0.406315,0.889215
9028052789,-0.797422,-0.415014,0.889323
9028103728,-0.806291,-0.415026,0.879348
9028154668,-0.788686,-0.432929,0.889715
9028205607,-0.797545,-0.432754,0.889726
9028256539,-0.788687,-0.424420,0.869956
9028307473,-0.806323,-0.423524,0.899418
9028358403,-0.797526,-0.424061,0.879852
9028409329,-0.797545,-0.432754,0.889726
9028460260,-0.806365,-0.423702,0.889748
9028511186,-0.797595,-0.433309,0.859979
9028562148,-0.806436,-0.432759,0.879961
9028613049,-0.797414,-0.414635,0.909413
9028663969,-0.806261,-0.414654,0.899216
9028714902,-0.815152,-0.414659,0.889452
9028765834,-0.788563,-0.423507,0.919158
9028816757,-0.788481,-0.406135,0.898991
9028867680,-0.797320,-0.405775,0.908885
9028918605,-0.797291,-0.396894,0.909009
9028969529,-0.806179,-0.405600,0.908896
9029020452,-0.797300,-0.405592,0.918766
9029071377,-0.806159,-0.405416,0.918778
9029122307,-0.806047,-0.387672,0.918485
9029173234,-0.806097,-0.396546,0.918576
9029224161,-0.788358,-0.388394,0.898587
9029275092,-0.788408,-0.397268,0.898682
9029326021,-0.806097,-0.396546,0.918576
9029376959,-0.788411,-0.396885,0.918883
9029427891,-0.797207,-0.396541,0.928335
9029478815,-0.797289,-0.405595,0.918656
9029529744,-0.797279,-0.397089,0.898801
9029580677,-0.797238,-0.396721,0.918565
9029631609,-0.806177,-0.405792,0.898800
9029682538,-0.806188,-0.405788,0.898907
9029733470,-0.797484,-0.423884,0.889524
9029784401,-0.797349,-0.406147,0.889015
9029835336,-0.806272,-0.414651,0.899324
9029886273,-0.797360,-0.406143,0.889121
9029937205,-0.797371,-0.406140,0.889227
9029988132,-0.779683,-0.415180,0.899181
9030039054,-0.806177,-0.405792,0.898800
9030089973,-0.806179,-0.405600,0.908896
9030140893,-0.797310,-0.405588,0.918877
9030191805,-0.788419,-0.397265,0.898789
9030242729,-0.797083,-0.378801,0.927932
9030293658,-0.797187,-0.387847,0.918473
9030344580,-0.805985,-0.378801,0.918283
9030395497,-0.788195,-0.378604,0.947795
9030446426,-0.788368,-0.396901,0.918443
9030497356,-0.797258,-0.396905,0.908683
9030548275,-0.797300,-0.405592,0.918766
9030599192,-0.788553,-0.415001,0.899300
9030650122,-0.788666,-0.432745,0.899596
9030701049,-0.779817,-0.432918,0.899692
9030751970,-0.788768,-0.441984,0.880034
9030802901,-0.788882,-0.451029,0.870665
9030853819,-0.788748,-0.441800,0.889916
9030904748,-0.797577,-0.432935,0.879949
9030955675,-0.788686,-0.432929,0.889715
9031006597,-0.779930,-0.450661,0.899988
9031057518,-0.770988,-0.433464,0.879809
9031108432,-0.788748,-0.441800,0.889916
9031159346,-0.788902,-0.459721,0.880543
9031210269,-0.780124,-0.468951,0.870850
9031261197,-0.788748,-0.441800,0.889916
9031312115,-0.788881,-0.451219,0.860575
9031363039,-0.788819,-0.450857,0.880132
9031413974,-0.788911,-0.459908,0.870556
9031464894,-0.788809,-0.450670,0.890118
9031515811,-0.788727,-0.441616,0.899798
9031566732,-0.797485,-0.415375,0.869766
9031617663,-0.797495,-0.423880,0.889631
9031668591,-0.788614,-0.424063,0.889407
9031719520,-0.797474,-0.423696,0.899514
9031770443,-0.788481,-0.406135,0.898991
9031821360,-0.797362,-0.405952,0.899217
9031872277,-0.797278,-0.405599,0.918546
9031923197,-0.797342,-0.405768,0.909102
9031974120,-0.797329,-0.405963,0.898895
9032025038,-0.788471,-0.405947,0.908982
9032075973,-0.788440,-0.405767,0.918755
9032126877,-0.797271,-0.396709,0.918895
9032177794,-0.806220,-0.414286,0.918980
9032228719,-0.797370,-0.414649,0.908978
9032279644,-0.806168,-0.405604,0.908788
9032330564,-0.797300,-0.405592,0.918766
9032381489,-0.788471,-0.405947,0.908982
9032432407,-0.797342,-0.405768,0.909102
9032483332,-0.788441,-0.397257,0.899004
9032534254,-0.806179,-0.405600,0.908896
9032585183,-0.797403,-0.414638,0.909304
9032636105,-0.788471,-0.405947,0.908982
9032687035,-0.797395,-0.405941,0.899540
9032737962,-0.797331,-0.405772,0.908993
9032788889,-0.788553,-0.415001,0.899300
9032839805,-0.797300,-0.397081,0.899016
9032890723,-0.788532,-0.415009,0.899085
9032941635,-0.797381,-0.414646,0.909086
9032992551,-0.797383,-0.414454,0.919189
9033043467,-0.806230,-0.414474,0.908989
9033094379,-0.797342,-0.405768,0.909102
9033145296,-0.788429,-0.405771,0.918645
9033196200,-0.806190,-0.405596,0.909005
9033247117,-0.797351,-0.405956,0.899110
9033298030,-0.797424,-0.414822,0.899419
9033348940,-0.797331,-0.405772,0.908993
9033399845,-0.806117,-0.396730,0.908694
9033450750,-0.797424,-0.414822,0.899419
9033501654,-0.797362,-0.405952,0.899217
9033552579,-0.806252,-0.414467,0.909207
9033603477,-0.797381,-0.414646,0.909086
9033654395,-0.797422,-0.415014,0.889323
9033705312,-0.797372,-0.414458,0.919078
9033756224,-0.797351,-0.405956,0.899110
9033807142,-0.788543,-0.415005,0.899193
9033858055,-0.806292,-0.414835,0.889440
9033908972,-0.806313,-0.423337,0.909409
9033959898,-0.797392,-0.406324,0.879344
9034010822,-0.788646,-0.424052,0.889725
9034061736,-0.797340,-0.405959,0.899003
9034112655,-0.788470,-0.406139,0.898884
9034163580,-0.797435,-0.414819,0.899527
9034214515,-0.797463,-0.423700,0.899406
9034265432,-0.788501,-0.406319,0.889109
9034316347,-0.797413,-0.414826,0.899312
9034367277,-0.797413,-0.414826,0.899312
9034418199,-0.806323,-0.423524,0.899418
9034469121,-0.797413,-0.414826,0.899312
9034520045,-0.797485,-0.423693,0.899621
9034570968,-0.788635,-0.424056,0.889619
9034621894,-0.797340,-0.405959,0.899003
9034672823,-0.788636,-0.423865,0.899717
9034723743,-0.797484,-0.423884,0.889524
9034774662,-0.806334,-0.423521,0.899525
9034825583,-0.788604,-0.423875,0.899395
9034876519,-0.797536,-0.432567,0.899716
9034927427,-0.797474,-0.415378,0.869662
9034978347,-0.806384,-0.432395,0.899620
9035029267,-0.788470,-0.406139,0.898884
9035080182,-0.797441,-0.423707,0.899192
9035131104,-0.797433,-0.415010,0.889429
9035182023,-0.797495,-0.423880,0.889631
9035232930,-0.788553,-0.415001,0.899300
9035283839,-0.815163,-0.414656,0.889558
9035334756,-0.797495,-0.423880,0.889631
9035385674,-0.797454,-0.423512,0.909397
9035436595,-0.797362,-0.405952,0.899217
9035487514,-0.797331,-0.405772,0.908993
9035538438,-0.797331,-0.405772,0.908993
9035589364,-0.797320,-0.405775,0.908885
9035640290,-0.797343,-0.405576,0.919207
9035691206,-0.797260,-0.396713,0.918785
9035742125,-0.788494,-0.397429,0.889438
9035793042,-0.815123,-0.414288,0.909327
9035843952,-0.788471,-0.405947,0.908982
9035894867,-0.797269,-0.396901,0.908792
9035945785,-0.815072,-0.405413,0.909234
9035996703,-0.788564,-0.414998,0.899408
9036047615,-0.806253,-0.405957,0.889451
9036098540,-0.788572,-0.415376,0.879324
9036149460,-0.806334,-0.423521,0.899525
9036200391,-0.797558,-0.432560,0.899930
9036251323,-0.797514,-0.432573,0.899501
9036302248,-0.788594,-0.423688,0.909385
9036353175,-0.797444,-0.415007,0.889535
9036404092,-0.797474,-0.423696,0.899514
9036455018,-0.797433,-0.415010,0.889429
9036505934,-0.806261,-0.414654,0.899216
9036556857,-0.806265,-0.414272,0.919421
9036607786,-0.797443,-0.423516,0.909288
9036658711,-0.788624,-0.424059,0.889513
9036709636,-0.797515,-0.424064,0.879747
9036760554,-0.806354,-0.423705,0.889642
9036811467,-0.797424,-0.414822,0.899419
9036862392,-0.788575,-0.414994,0.899515
9036913313,-0.788595,-0.415178,0.889629
9036964239,-0.788679,-0.424042,0.890043
9037015163,-0.806356,-0.423514,0.899740
9037066086,-0.797467,-0.423318,0.919611
9037117013,-0.797393,-0.406132,0.889439
9037167938,-0.797453,-0.415194,0.879545
9037218868,-0.797424,-0.414822,0.899419
9037269800,-0.797411,-0.415017,0.889217
9037320729,-0.797433,-0.415010,0.889429
9037371660,-0.797474,-0.423696,0.899514
9037422593,-0.797465,-0.423509,0.909506
9037473531,-0.788553,-0.415001,0.899300
9037524461,-0.788594,-0.423688,0.909385
9037575392,-0.806334,-0.423521,0.899525
9037626318,-0.797444,-0.415007,0.889535
9037677257,-0.788492,-0.406131,0.899099
9037728193,-0.797352,-0.414274,0.928962
9037779127,-0.797392,-0.414642,0.909195
9037830056,-0.806211,-0.405780,0.899122
9037880991,-0.806337,-0.414820,0.889865
9037931925,-0.797394,-0.414451,0.919299
9037982848,-0.788484,-0.405752,0.919195
9038033785,-0.788513,-0.406124,0.899313
9038084713,-0.788359,-0.388202,0.908687
9038135631,-0.779386,-0.379143,0.928131
9038186564,-0.788340,-0.387826,0.928679
9038237484,-0.797220,-0.387835,0.918804
9038288413,-0.788195,-0.370093,0.928052
9038339346,-0.788236,-0.378780,0.938139
9038390279,-0.788257,-0.378964,0.928254
9038441202,-0.788339,-0.388018,0.918572
9038492131,-0.779652,-0.406490,0.889204
9038543068,-0.797588,-0.432932,0.880054
9038593998,-0.797629,-0.441618,0.890140
9038644933,-0.788871,-0.459540,0.890320
9038695863,-0.789006,-0.468771,0.871068
9038746804,-0.788943,-0.460089,0.860776
9038797738,-0.788953,-0.460087,0.860878
9038848656,-0.797782,-0.459730,0.870671
9038899583,-0.788891,-0.459724,0.880438
9038950507,-0.788861,-0.451035,0.870458
9039001435,-0.797750,-0.459549,0.880450
9039052358,-0.788933,-0.459903,0.870763
9039103283,-0.797956,-0.477836,0.851409
9039154209,-0.806836,-0.477845,0.841536
9039205123,-0.806807,-0.477475,0.861408
9039256044,-0.797927,-0.477466,0.871282
9039306965,-0.806602,-0.450678,0.870688
9039357878,-0.788750,-0.433101,0.880252
9039408788,-0.797567,-0.432748,0.889938
9039459712,-0.797588,-0.432932,0.880054
9039510631,-0.797424,-0.414822,0.899419
9039561551,-0.797424,-0.414822,0.899419
9039612471,-0.806294,-0.414644,0.899538
9039663380,-0.806233,-0.405773,0.899337
9039714292,-0.806283,-0.414647,0.899431
9039765203,-0.806119,-0.396538,0.918797
9039816125,-0.797343,-0.405576,0.919207
9039867040,-0.797362,-0.405952,0.899217
9039917958,-0.788411,-0.396885,0.918883
9039968882,-0.797178,-0.387659,0.928468
9040019805,-0.806091,-0.387655,0.918925
9040070720,-0.797230,-0.388023,0.908807
9040121641,-0.797167,-0.387663,0.928356
9040172561,-0.788492,-0.406131,0.899099
9040223485,-0.806273,-0.406141,0.879565
9040274410,-0.797731,-0.450857,0.870573
9040325335,-0.780053,-0.459894,0.880636
9040376260,-0.789004,-0.468960,0.860978
9040427182,-0.789046,-0.469139,0.851296
9040478099,-0.789159,-0.486882,0.851599
9040529032,-0.789240,-0.495937,0.841917
9040579954,-0.789148,-0.486884,0.851499
9040630890,-0.797914,-0.477657,0.861090
9040681816,-0.798141,-0.504448,0.852015
9040732746,-0.806971,-0.495584,0.842039
9040783673,-0.798027,-0.486893,0.841627
9040834598,-0.798080,-0.495577,0.851813
9040885502,-0.806951,-0.495400,0.851925
9040936420,-0.798100,-0.495761,0.841928
9040987343,-0.797936,-0.477652,0.861294
9041038265,-0.806887,-0.486717,0.841639
9041089184,-0.806805,-0.477663,0.851320
9041140106,-0.797914,-0.477657,0.861090
9041191030,-0.797897,-0.468777,0.861296
9041241963,-0.788953,-0.460087,0.860878
9041292885,-0.788922,-0.459905,0.870660
9041343806,-0.797864,-0.468784,0.860990
9041394732,-0.806661,-0.459738,0.860800
9041445655,-0.797854,-0.468598,0.870976
9041496581,-0.797930,-0.468769,0.861603
9041547507,-0.815532,-0.459560,0.860913
9041598431,-0.806692,-0.468427,0.870781
9041649348,-0.806796,-0.477477,0.861305
9041700264,-0.789056,-0.477644,0.871167
9041751174,-0.806745,-0.468604,0.861206
9041802089,-0.797956,-0.477836,0.851409
9041853011,-0.797864,-0.468784,0.860990
9041903928,-0.797895,-0.468966,0.851207
9041954840,-0.797843,-0.468600,0.870873
9042005766,-0.806703,-0.468425,0.870885
9042056688,-0.797864,-0.468784,0.860990
9042107616,-0.797886,-0.468779,0.861194
9042158536,-0.797905,-0.477471,0.871075
9042209454,-0.797893,-0.469155,0.841124
9042260376,-0.789056,-0.477644,0.871167
9042311306,-0.806701,-0.468614,0.860797
9042362231,-0.806663,-0.459549,0.870890
9042413165,-0.797875,-0.468782,0.861092
9042464090,-0.797864,-0.468784,0.860990
9042515014,-0.806745,-0.468604,0.861206
9042565933,-0.797865,-0.468595,0.871080
9042616854,-0.806776,-0.477293,0.871190
9042667781,-0.806743,-0.468793,0.851118
9042718704,-0.797804,-0.459725,0.870878
9042769634,-0.806816,-0.477661,0.851421
9042820551,-0.797945,-0.477839,0.851308
9042871470,-0.789046,-0.469139,0.851296
9042922395,-0.797989,-0.486337,0.871484
9042973323,-0.806663,-0.459549,0.870890
9043024241,-0.789087,-0.477825,0.861384
9043075160,-0.788924,-0.459716,0.880752
9043126079,-0.806754,-0.468790,0.851219
9043177000,-0.806724,-0.460101,0.841232
9043227922,-0.789046,-0.469139,0.851296
9043278854,-0.788953,-0.460087,0.860878
9043329781,-0.806694,-0.468238,0.880873
9043380693,-0.806807,-0.477475,0.861408
9043431612,-0.806754,-0.468790,0.851219
9043482533,-0.806675,-0.459547,0.870993
9043533456,-0.806745,-0.468604,0.861206
9043584377,-0.788964,-0.460084,0.860981
9043635302,-0.789098,-0.477823,0.861486
9043686227,-0.780136,-0.468759,0.881047
9043737149,-0.806714,-0.468422,0.870988
9043788063,-0.806787,-0.477291,0.871293
9043838983,-0.789026,-0.468955,0.861182
9043889905,-0.806754,-0.468790,0.851219
9043940826,-0.789108,-0.478009,0.851498
9043991749,-0.797793,-0.459727,0.870775
9044042675,-0.797815,-0.459722,0.870982
9044093600,-0.797740,-0.451043,0.860586
9044144531,-0.806684,-0.459733,0.861004
9044195450,-0.806684,-0.459733,0.861004
9044246375,-0.806684,-0.459733,0.861004
9044297301,-0.806816,-0.477661,0.851421
9044348227,-0.798007,-0.486709,0.851510
9044399159,-0.806850,-0.477654,0.851723
9044450074,-0.797968,-0.477834,0.851510
9044500997,-0.797947,-0.477650,0.861396
9044551907,-0.797958,-0.477648,0.861498
9044602830,-0.797938,-0.477464,0.871385
9044653758,-0.797763,-0.459356,0.890650
9044704682,-0.789015,-0.468957,0.861080
9044755611,-0.806652,-0.451233,0.840931
9044806538,-0.797753,-0.450851,0.870780
9044857465,-0.797743,-0.459172,0.900536
9044908390,-0.806697,-0.459541,0.871200
9044959310,-0.788861,-0.451035,0.870458
9045010221,-0.815496,-0.450495,0.871010
9045061151,-0.788996,-0.468584,0.881059
9045112070,-0.788984,-0.468776,0.870861
9045162988,-0.797886,-0.468779,0.861194
9045213907,-0.815678,-0.477297,0.861521
9045264826,-0.797947,-0.477650,0.861396
9045315747,-0.797905,-0.477471,0.871075
9045366669,-0.789047,-0.477457,0.881156
9045417591,-0.797947,-0.477650,0.861396
9045468505,-0.789140,-0.486510,0.871575
9045519432,-0.806766,-0.477107,0.881179
9045570351,-0.806898,-0.486715,0.841738
9045621266,-0.806869,-0.486345,0.861609
9045672194,-0.797965,-0.486529,0.861189
9045723110,-0.789119,-0.478007,0.851599
9045774034,-0.797835,-0.459906,0.861094
9045824948,-0.797804,-0.459725,0.870878
9045875866,-0.806675,-0.459547,0.870993
9045926783,-0.797712,-0.442164,0.860691
9045977703,-0.806656,-0.459173,0.890980
9046028614,-0.806613,-0.450676,0.870791
9046079531,-0.815464,-0.450313,0.880795
9046130456,-0.797722,-0.450670,0.880562
9046181382,-0.797742,-0.450854,0.870676
9046232305,-0.815503,-0.459190,0.880787
9046283225,-0.797802,-0.459914,0.860788
9046334149,-0.806652,-0.459552,0.870786
9046385075,-0.797947,-0.477650,0.861396
9046435997,-0.806889,-0.486529,0.851723
9046486909,-0.806848,-0.477843,0.841636
9046537830,-0.806807,-0.477475,0.861408
9046588758,-0.806684,-0.459733,0.861004
9046639684,-0.797876,-0.468593,0.871183
9046690600,-0.806673,-0.459736,0.860902
9046741520,-0.788996,-0.468584,0.881059
9046792434,-0.806645,-0.450857,0.861006
9046843357,-0.806673,-0.459736,0.860902
9046894280,-0.797733,-0.450667,0.880667
9046945202,-0.788913,-0.459719,0.880648
9046996124,-0.797772,-0.459543,0.880659
9047047040,-0.806593,-0.450492,0.880679
9047097973,-0.797772,-0.459543,0.880659
9047148906,-0.806570,-0.450497,0.880469
9047199849,-0.797824,-0.459909,0.860992
9047250805,-0.797947,-0.477650,0.861396
9047301748,-0.788933,-0.459903,0.870763
9047352694,-0.806766,-0.468788,0.851320
9047403639,-0.797968,-0.477834,0.851510
9047454598,-0.789190,-0.487064,0.841814
9047505554,-0.798031,-0.486516,0.861802
9047556509,-0.797916,-0.477468,0.871178
9047607464,-0.797945,-0.477839,0.851308
9047658415,-0.806776,-0.477293,0.871190
9047709362,-0.798040,-0.486703,0.851812
9047760308,-0.797906,-0.468963,0.851308
9047811250,-0.797824,-0.459909,0.860992
9047862195,-0.806736,-0.468417,0.871195
9047913142,-0.797815,-0.459722,0.870982
9047964093,-0.797742,-0.450854,0.870676
9048015047,-0.806595,-0.450302,0.890778
9048066000,-0.797764,-0.450848,0.870883
9048116950,-0.797742,-0.450854,0.870676
9048167884,-0.797804,-0.459725,0.870878
9048218809,-0.788894,-0.459345,0.900632
9048269741,-0.788893,-0.451026,0.870768
9048320670,-0.788945,-0.459711,0.880962
9048371596,-0.788882,-0.451029,0.870665
9048422520,-0.797783,-0.459541,0.880764
9048473439,-0.806584,-0.450305,0.890672
9048524366,-0.806572,-0.450308,0.890566
9048575299,-0.797567,-0.432748,0.889938
9048626228,-0.788811,-0.441971,0.880454
9048677165,-0.788821,-0.442159,0.870463
9048728098,-0.797610,-0.432925,0.880264
9048779027,-0.788862,-0.450845,0.880551
9048829957,-0.788873,-0.450842,0.880655
9048880893,-0.797722,-0.450670,0.880562
9048931833,-0.797722,-0.450670,0.880562
9048982751,-0.797751,-0.451041,0.860688
9049033683,-0.797793,-0.459727,0.870775
9049084605,-0.797733,-0.450667,0.880667
9049135532,-0.797722,-0.450670,0.880562
9049186456,-0.797814,-0.468230,0.890746
9049237383,-0.797742,-0.450854,0.870676
9049288306,-0.797815,-0.468041,0.900845
9049339231,-0.797751,-0.451041,0.860688
9049390154,-0.788800,-0.441974,0.880349
9049441071,-0.797660,-0.441799,0.880360
9049491986,-0.806602,-0.450678,0.870688
9049542908,-0.797804,-0.459725,0.870878
9049593816,-0.788912,-0.451400,0.850792
9049644731,-0.797796,-0.459348,0.890969
9049695646,-0.788748,-0.433291,0.870158
9049746567,-0.797724,-0.441971,0.870889
9049797493,-0.788926,-0.451018,0.871079
9049848412,-0.797722,-0.450670,0.880562
9049899328,-0.815371,-0.441261,0.890376
9049950239,-0.806439,-0.424060,0.870290
9050001156,-0.806511,-0.441437,0.890364
9050052068,-0.806306,-0.414640,0.899646
9050102979,-0.797404,-0.406129,0.889545
9050153887,-0.806264,-0.405953,0.889557
9050204791,-0.806205,-0.396890,0.899457
9050255706,-0.797384,-0.405944,0.899433
9050306616,-0.788535,-0.406116,0.899528
9050357534,-0.788666,-0.424236,0.879840
9050408454,-0.797669,-0.441986,0.870371
9050459371,-0.797702,-0.441977,0.870681
9050510294,-0.797886,-0.468779,0.861194
9050561212,-0.780167,-0.468941,0.871264
9050612127,-0.789304,-0.504620,0.852204
9050663038,-0.798120,-0.495945,0.832044
9050713950,-0.789171,-0.486692,0.861790
9050764864,-0.789129,-0.486512,0.871472
9050815788,-0.798040,-0.486703,0.851812
9050866720,-0.780299,-0.487058,0.851588
9050917639,-0.771460,-0.487229,0.851777
9050968556,-0.753894,-0.505504,0.842370
9051019471,-0.754027,-0.523618,0.822706
9051070377,-0.762806,-0.514201,0.842484
9051121304,-0.780320,-0.487053,0.851789
9051172224,-0.789048,-0.468950,0.861387
9051223148,-0.806602,-0.450678,0.870688
9051274064,-0.806512,-0.432928,0.870595
9051324981,-0.806419,-0.423876,0.880178
9051375896,-0.806346,-0.415008,0.879872
9051426814,-0.815236,-0.423523,0.889866
9051477729,-0.815279,-0.423700,0.880190
9051528642,-0.815154,-0.414468,0.899550
9051579547,-0.815145,-0.405962,0.879681
9051630462,-0.815153,-0.406150,0.869691
9051681373,-0.815299,-0.423884,0.870301
9051732302,-0.833043,-0.423527,0.870532
9051783222,-0.806624,-0.450673,0.870895
9051834145,-0.806540,-0.441808,0.870486
9051885065,-0.806738,-0.459909,0.851420
9051935981,-0.797846,-0.459903,0.861197
9051986906,-0.789008,-0.460073,0.861389
9052037830,-0.789048,-0.468950,0.861387
9052088748,-0.797865,-0.468595,0.871080
9052139672,-0.789078,-0.477639,0.871374
9052190602,-0.780464,-0.504979,0.842306
9052241520,-0.780423,-0.496292,0.832217
9052292447,-0.771747,-0.523080,0.832810
9052343365,-0.762836,-0.514570,0.822613
9052394285,-0.771645,-0.513841,0.852383
9052445202,-0.789191,-0.486876,0.851902
9052496122,-0.789090,-0.469129,0.851700
9052547034,-0.806645,-0.450857,0.861006
9052597953,-0.806542,-0.441618,0.880582
9052648868,-0.797693,-0.441790,0.880675
9052699783,-0.806481,-0.432747,0.880380
9052750698,-0.806410,-0.423688,0.890173
9052801615,-0.815318,-0.432578,0.880182
9052852530,-0.824033,-0.406158,0.859816
9052903439,-0.815133,-0.405966,0.879576
9052954349,-0.815249,-0.415010,0.870203
9053005263,-0.815197,-0.414645,0.889877
9053056177,-0.806447,-0.432756,0.880066
9053107085,-0.815414,-0.441439,0.880698
9053157990,-0.806675,-0.459547,0.870993
9053208899,-0.788986,-0.460079,0.861185
9053259807,-0.806757,-0.468601,0.861308
9053310716,-0.780259,-0.478183,0.851587
9053361629,-0.789038,-0.468763,0.871379
9053412539,-0.797960,-0.477459,0.871592
9053463449,-0.797936,-0.477652,0.861294
9053514352,-0.789049,-0.468761,0.871482
9053565270,-0.789193,-0.486688,0.861995
9053616175,-0.780383,-0.495736,0.862083
9053667091,-0.798062,-0.486698,0.852014
9053718011,-0.789048,-0.468950,0.861387
9053768933,-0.797876,-0.468593,0.871183
9053819853,-0.797898,-0.468588,0.871390
9053870775,-0.797837,-0.459717,0.871189
9053921699,-0.797837,-0.459717,0.871189
9053972614,-0.806736,-0.468417,0.871195
9054023534,-0.815660,-0.468605,0.851634
9054074447,-0.797733,-0.450667,0.880667
9054125372,-0.797643,-0.432916,0.880578
9054176287,-0.815434,-0.441623,0.870808
9054227202,-0.815453,-0.450316,0.880690
9054278129,-0.806511,-0.441437,0.890364
9054329049,-0.806522,-0.441434,0.890470
9054379970,-0.815409,-0.441819,0.860510
9054430900,-0.806520,-0.441624,0.880372
9054481821,-0.806604,-0.450489,0.880784
9054532744,-0.797714,-0.441974,0.870785
9054583672,-0.806535,-0.432921,0.870802
9054634593,-0.815462,-0.450503,0.870700
9054685509,-0.797682,-0.441793,0.880570
9054736433,-0.806520,-0.441624,0.880372
9054787355,-0.797723,-0.442161,0.860793
9054838276,-0.797693,-0.441790,0.880675
9054889179,-0.797651,-0.441612,0.890352
9054940107,-0.797786,-0.450843,0.871090
9054991027,-0.797651,-0.441612,0.890352
9055041961,-0.797775,-0.450845,0.870987
9055092886,-0.797733,-0.450667,0.880667
9055143804,-0.806531,-0.441621,0.880477
9055194732,-0.806658,-0.450664,0.871206
9055245659,-0.806647,-0.450667,0.871102
9055296579,-0.815607,-0.468239,0.871310
9055347506,-0.797753,-0.450851,0.870780
9055398426,-0.788975,-0.460081,0.861083
9055449355,-0.797701,-0.442167,0.860589
9055500275,-0.806623,-0.459181,0.890662
9055551198,-0.797775,-0.450845,0.870987
9055602113,-0.797805,-0.459535,0.880974
9055653023,-0.797919,-0.468772,0.861501
9055703941,-0.806654,-0.459362,0.880881
9055754853,-0.789037,-0.468952,0.861285
9055805769,-0.798049,-0.486889,0.841826
9055856678,-0.789293,-0.504622,0.852104
9055907599,-0.771696,-0.514208,0.832707
9055958516,-0.762754,-0.505328,0.842382
9056009434,-0.762908,-0.523440,0.822911
9056060347,-0.771759,-0.522892,0.842996
9056111263,-0.780484,-0.505163,0.832418
9056162176,-0.789087,-0.477825,0.861384
9056213103,-0.806500,-0.441440,0.890258
9056264023,-0.815390,-0.433127,0.850625
9056314938,-0.824201,-0.432396,0.880403
9056365862,-0.806439,-0.424060,0.870290
9056416786,-0.815402,-0.441442,0.880593
9056467709,-0.815320,-0.424068,0.860413
9056518629,-0.824066,-0.414657,0.879895
9056569546,-0.823872,-0.387857,0.889283
9056620467,-0.832771,-0.396560,0.889284
9056671391,-0.823966,-0.396908,0.879701
9056722315,-0.815261,-0.415006,0.870307
9056773237,-0.806676,-0.451038,0.851219
9056824160,-0.789150,-0.478189,0.841811
9056875080,-0.771645,-0.505335,0.832603
9056925991,-0.771758,-0.514573,0.813120
9056976905,-0.771779,-0.523076,0.833105
9057027816,-0.771840,-0.532134,0.823222
9057078733,-0.789396,-0.513673,0.842619
9057129650,-0.789242,-0.495749,0.852003
9057180571,-0.780403,-0.495920,0.852193
9057231494,-0.753986,-0.514557,0.832781
9057282412,-0.762908,-0.523253,0.832995
9057333333,-0.762990,-0.532308,0.823307
9057384245,-0.745270,-0.532659,0.823283
9057435154,-0.771676,-0.514024,0.842595
9057486067,-0.789078,-0.477639,0.871374
9057540233,-0.806624,-0.450673,0.870895
9057591147,-0.806492,-0.432743,0.880485
9057642085,-0.806419,-0.423876,0.880178
9057692980,-0.815259,-0.423516,0.890078
9057743892,-0.815363,-0.432565,0.880601
9057794801,-0.806542,-0.441618,0.880582
9057845714,-0.797591,-0.432551,0.900253
9057896632,-0.797529,-0.423679,0.900051
9057947543,-0.815167,-0.405954,0.879891
9057998458,-0.806196,-0.396702,0.909456
9058049366,-0.823905,-0.396356,0.909371
9058100275,-0.815220,-0.414638,0.890089
9058151192,-0.815384,-0.432749,0.870710
9058202109,-0.815566,-0.459553,0.861220
9058253025,-0.789140,-0.478003,0.851801
9058303938,-0.780445,-0.496101,0.842502
9058354852,-0.771707,-0.514206,0.832805
9058405765,-0.771779,-0.523076,0.833105
9058456676,-0.771635,-0.505337,0.832505
9058507590,-0.780445,-0.504607,0.862284
9058558495,-0.789160,-0.486694,0.861688
9058609406,-0.780394,-0.495734,0.862185
9058660322,-0.780351,-0.487235,0.842001
9058711244,-0.780476,-0.504790,0.852495
9058762150,-0.780465,-0.504792,0.852394
9058813059,-0.771687,-0.514022,0.842695
9058863968,-0.771605,-0.504967,0.852383
9058914882,-0.771328,-0.469112,0.871459
9058965800,-0.806472,-0.432559,0.890375
9059016711,-0.823914,-0.396544,0.899373
9059067633,-0.832785,-0.396364,0.899492
9059118544,-0.823977,-0.396904,0.879806
9059169457,-0.815356,-0.423868,0.870819
9059220374,-0.806677,-0.459357,0.881090
9059271296,-0.806779,-0.468596,0.861512
9059322212,-0.789140,-0.478003,0.851801
9059373131,-0.780332,-0.486863,0.861983
9059424040,-0.789253,-0.495747,0.852104
9059474954,-0.797867,-0.468406,0.881176
9059525871,-0.789027,-0.460447,0.841408
9059576788,-0.797908,-0.468774,0.861398
9059627708,-0.797835,-0.459906,0.861094
9059678627,-0.798000,-0.486335,0.871587
9059729535,-0.789111,-0.477632,0.871684
9059780454,-0.797937,-0.469145,0.841522
9059831366,-0.789027,-0.468766,0.871275
9059882283,-0.789058,-0.468947,0.861489
9059933195,-0.797866,-0.460087,0.851308
9059984122,-0.797859,-0.459711,0.871396
9060035046,-0.797837,-0.459717,0.871189
9060085966,-0.797866,-0.460087,0.851308
9060136896,-0.806666,-0.459360,0.880985
9060187812,-0.797949,-0.477461,0.871489
9060238738,-0.797898,-0.468588,0.871390
9060289657,-0.806800,-0.477099,0.881494
9060340572,-0.797826,-0.459719,0.871085
9060391490,-0.797866,-0.460087,0.851308
9060442410,-0.797919,-0.468772,0.861501
9060493320,-0.797919,-0.468772,0.861501
9060544235,-0.797846,-0.459903,0.861197
9060595157,-0.806695,-0.459731,0.861106
9060646075,-0.815473,-0.450500,0.870803
9060696999,-0.797847,-0.468222,0.891064
9060747921,-0.806633,-0.450860,0.860904
9060798843,-0.797846,-0.459903,0.861197
9060849764,-0.789027,-0.468766,0.871275
9060900678,-0.797868,-0.459898,0.861401
9060951592,-0.789017,-0.460260,0.851397
9061002493,-0.806768,-0.468599,0.861410
9061053400,-0.797877,-0.460085,0.851409
9061104312,-0.788998,-0.459887,0.871384
9061155223,-0.806747,-0.468415,0.871299
9061206131,-0.797980,-0.477643,0.861702
9061257050,-0.788966,-0.459895,0.871073
9061307965,-0.797920,-0.468583,0.871598
9061358882,-0.788945,-0.451392,0.851094
9061409805,-0.797836,-0.451398,0.841317
9061460712,-0.797837,-0.459717,0.871189
9061511628,-0.815589,-0.459547,0.861424
9061562552,-0.797857,-0.459901,0.861299
9061613470,-0.806717,-0.459725,0.861310
9061664386,-0.806831,-0.468962,0.841832
9061715307,-0.797909,-0.468585,0.871494
9061766226,-0.788967,-0.459705,0.881172
9061817144,-0.797848,-0.459714,0.871292
9061868068,-0.806731,-0.459533,0.871511
9061918994,-0.806689,-0.450846,0.861415
9061969919,-0.788986,-0.460079,0.861185
9062020836,-0.806740,-0.459720,0.861515
9062071758,-0.789100,-0.469127,0.851801
9062122683,-0.789069,-0.468945,0.861591
9062173607,-0.797950,-0.468954,0.851712
9062224525,-0.789049,-0.468761,0.871482
9062275453,-0.806728,-0.459723,0.861413
9062326381,-0.797928,-0.468958,0.851510
9062377309,-0.806768,-0.468599,0.861410
9062428228,-0.797866,-0.460087,0.851308
9062479149,-0.797846,-0.459903,0.861197
9062530076,-0.806706,-0.459728,0.861208
9062581003,-0.806790,-0.468594,0.861614
9062631921,-0.806841,-0.477468,0.861714
9062682840,-0.797930,-0.468769,0.861603
9062733760,-0.806790,-0.468594,0.861614
9062784683,-0.797868,-0.459898,0.861401
9062835605,-0.797919,-0.468772,0.861501
9062886532,-0.806738,-0.459909,0.851420
9062937451,-0.797859,-0.459711,0.871396
9062988364,-0.797898,-0.468588,0.871390
9063039285,-0.798032,-0.478009,0.842022
9063090195,-0.806872,-0.477650,0.851925
9063141115,-0.797971,-0.477457,0.871696
9063192028,-0.806698,-0.451033,0.851420
9063242931,-0.797898,-0.468588,0.871390
9063293859,-0.806699,-0.459352,0.881300
9063344783,-0.806656,-0.450854,0.861109
9063395705,-0.815600,-0.459545,0.861526
9063446626,-0.797858,-0.451392,0.841516
9063497548,-0.797870,-0.459709,0.871499
9063548470,-0.789090,-0.469129,0.851700
9063599396,-0.789110,-0.469313,0.841808
9063650331,-0.797908,-0.468774,0.861398
9063701257,-0.789006,-0.460263,0.851296
9063752183,-0.797972,-0.468949,0.851913
9063803106,-0.798001,-0.477827,0.851812
9063854032,-0.797930,-0.468769,0.861603
9063904956,-0.797877,-0.460085,0.851409
9063955878,-0.797763,-0.459356,0.890650
9064006797,-0.797952,-0.468765,0.861807
9064057724,-0.806852,-0.477465,0.861816
9064108642,-0.797868,-0.459898,0.861401
9064159556,-0.806738,-0.459909,0.851420
9064210470,-0.797899,-0.460080,0.851611
9064261382,-0.806872,-0.477650,0.851925
9064312302,-0.806768,-0.468599,0.861410
9064363222,-0.789153,-0.477812,0.861997
9064414140,-0.789058,-0.468947,0.861489
9064465066,-0.797991,-0.477641,0.861805
9064515982,-0.788966,-0.459895,0.871073
9064566905,-0.797919,-0.468772,0.861501
9064617828,-0.789060,-0.468758,0.871586
9064668750,-0.797704,-0.441787,0.880780
9064719685,-0.788742,-0.432723,0.900349
9064770610,-0.797704,-0.441787,0.880780
9064821543,-0.788732,-0.432535,0.910349
9064872484,-0.780107,-0.459881,0.881160
9064923381,-0.780230,-0.469115,0.861784
9064974300,-0.789273,-0.495931,0.842215
9065025217,-0.771687,-0.505328,0.832996
9065076135,-0.780681,-0.523082,0.823419
9065127046,-0.754222,-0.541352,0.823788
9065177967,-0.772004,-0.550059,0.813928
9065228884,-0.763164,-0.550418,0.804025
9065279813,-0.772076,-0.559115,0.804144
9065330737,-0.780884,-0.550253,0.793971
9065381665,-0.771943,-0.532682,0.793927
9065432589,-0.780937,-0.558754,0.814237
9065483518,-0.798442,-0.531606,0.823450
9065534441,-0.789511,-0.522724,0.833226
9065585357,-0.789284,-0.495929,0.842314
9065636280,-0.798105,-0.486878,0.842323
9065687202,-0.807048,-0.504078,0.862524
9065738124,-0.789327,-0.495921,0.842713
9065789042,-0.797982,-0.477454,0.871799
9065839961,-0.806824,-0.468587,0.861921
9065890892,-0.789172,-0.478184,0.842010
9065941818,-0.806731,-0.459533,0.871511
9065992742,-0.806635,-0.450670,0.870999
9066043665,-0.806609,-0.441600,0.881211
9066094572,-0.806494,-0.432553,0.890587
9066145482,-0.797797,-0.450840,0.871194
9066196426,-0.797777,-0.450656,0.881087
9066247329,-0.806678,-0.450848,0.861313
9066298261,-0.806689,-0.450846,0.861415
9066349187,-0.815600,-0.459545,0.861526
9066400121,-0.815591,-0.459358,0.871523
9066451051,-0.806843,-0.477279,0.871811
9066501981,-0.797952,-0.468765,0.861807
9066552902,-0.798042,-0.486514,0.861904
9066603829,-0.807006,-0.495390,0.852430
9066654758,-0.806904,-0.477831,0.842133
9066705677,-0.806872,-0.477650,0.851925
9066756602,-0.806872,-0.477650,0.851925
9066807525,-0.815628,-0.468424,0.861422
9066858451,-0.798032,-0.478009,0.842022
9066909382,-0.797991,-0.469322,0.831929
9066960304,-0.815710,-0.477479,0.851735
9067011223,-0.797890,-0.459893,0.861605
9067062146,-0.815559,-0.450857,0.851432
9067113066,-0.806824,-0.468587,0.861921
9067163992,-0.806565,-0.441612,0.880792
9067214917,-0.806647,-0.450667,0.871102
9067265845,-0.797693,-0.441790,0.880675
9067316769,-0.806503,-0.432740,0.880590
9067367705,-0.806337,-0.414820,0.889865
9067418615,-0.815220,-0.414638,0.890089
9067469537,-0.815282,-0.423509,0.890291
9067520445,-0.806460,-0.432563,0.890269
9067571376,-0.824226,-0.432199,0.890717
9067622298,-0.815496,-0.450495,0.871010
9067673223,-0.824470,-0.459556,0.851545
9067724142,-0.815691,-0.468787,0.841843
9067775060,-0.815730,-0.477663,0.841846
9067825982,-0.815898,-0.487078,0.812764
9067876900,-0.824862,-0.504462,0.823074
9067927821,-0.833793,-0.513344,0.813298
9067978750,-0.824839,-0.504465,0.822880
9068029681,-0.816133,-0.522566,0.813476
9068080610,-0.807264,-0.522556,0.823454
9068131538,-0.807170,-0.513502,0.833048
9068182470,-0.815814,-0.486530,0.842247
9068233392,-0.815899,-0.495397,0.842648
9068284303,-0.815712,-0.477290,0.861828
9068335213,-0.824405,-0.450874,0.841253
9068386143,-0.815566,-0.459553,0.861220
9068437065,-0.842149,-0.450518,0.841475
9068487988,-0.815445,-0.441620,0.870912
9068538913,-0.815539,-0.450673,0.861325
9068589830,-0.815578,-0.459550,0.861322
9068640753,-0.824336,-0.450135,0.880912
9068691672,-0.806551,-0.441805,0.870590
9068742590,-0.815498,-0.450305,0.881110
9068793510,-0.806751,-0.459717,0.861617
9068844431,-0.806904,-0.477831,0.842133
9068895335,-0.815798,-0.477649,0.842444
9068946249,-0.815826,-0.486528,0.842347
9068997158,-0.815879,-0.495213,0.852542
9069048083,-0.815885,-0.495587,0.832460
9069099006,-0.815887,-0.495399,0.842548
9069149923,-0.815874,-0.495589,0.832361
9069200842,-0.798062,-0.486698,0.852014
9069251770,-0.806768,-0.468599,0.861410
9069302686,-0.806894,-0.477645,0.852127
9069353611,-0.815755,-0.477470,0.852138
9069404537,-0.824625,-0.477481,0.842157
9069455458,-0.806936,-0.486333,0.862223
9069506389,-0.824642,-0.477853,0.822178
9069557313,-0.806954,-0.486705,0.842235
9069608236,-0.815865,-0.495403,0.842349
9069659175,-0.798166,-0.495750,0.842525
9069710096,-0.815806,-0.486343,0.852239
9069761025,-0.815928,-0.495767,0.822763
9069811953,-0.816063,-0.513509,0.823264
9069862885,-0.807202,-0.513684,0.823252
9069913812,-0.816093,-0.522198,0.833261
9069964731,-0.807148,-0.513505,0.832851
9070015657,-0.816103,-0.513877,0.803476
9070066585,-0.816074,-0.513507,0.823361
9070117507,-0.807200,-0.513872,0.813167
9070168428,-0.816122,-0.522568,0.813381
9070219351,-0.807222,-0.513869,0.813358
9070270268,-0.798300,-0.505172,0.813145
9070321181,-0.807127,-0.505002,0.812870
9070372098,-0.807250,-0.522744,0.813273
9070423018,-0.816113,-0.522382,0.823369
9070473944,-0.807252,-0.522557,0.823357
9070524869,-0.798421,-0.523102,0.803466
9070575790,-0.807211,-0.513870,0.813263
9070626707,-0.825110,-0.531443,0.804080
9070677625,-0.816165,-0.522749,0.803678
9070728544,-0.816142,-0.522752,0.803489
9070779460,-0.816193,-0.531624,0.803597
9070830381,-0.807327,-0.522922,0.803855
9070881300,-0.807323,-0.531614,0.813571
9070932218,-0.798401,-0.522918,0.813357
9070983135,-0.816154,-0.522750,0.803584
9071034045,-0.807275,-0.522555,0.823551
9071084960,-0.816204,-0.531623,0.803691
9071135875,-0.807200,-0.513872,0.813167
9071186791,-0.816090,-0.522385,0.823175
9071237706,-0.807159,-0.513503,0.832950
9071288631,-0.798278,-0.513495,0.842829
9071339561,-0.807193,-0.513499,0.833244
9071390484,-0.807098,-0.504632,0.832748
9071441401,-0.798174,-0.496124,0.822449
9071492319,-0.806892,-0.477834,0.842034
9071543252,-0.806881,-0.477836,0.841934
9071594180,-0.806813,-0.468589,0.861819
9071645107,-0.815589,-0.459547,0.861424
9071696032,-0.806596,-0.441793,0.871004
9071746965,-0.815282,-0.423509,0.890291
9071797895,-0.806289,-0.405754,0.899874
9071848819,-0.806145,-0.387827,0.909363
9071899743,-0.805951,-0.361024,0.918761
9071950660,-0.805838,-0.351788,0.938234
9072001581,-0.796864,-0.342729,0.957690
9072052501,-0.787737,-0.307235,0.966763
9072103412,-0.778805,-0.298349,0.976559
9072154327,-0.796351,-0.279893,0.995843
9072205247,-0.778415,-0.253254,1.015120
9072256170,-0.778374,-0.244567,1.005026
9072307099,-0.769216,-0.208696,1.034011
9072358023,-0.769103,-0.191145,1.023588
9072408947,-0.768960,-0.173016,1.043226
9072459860,-0.777656,-0.154931,1.052471
9072510785,-0.759760,-0.128860,1.041822
9072561701,-0.768395,-0.101703,1.061010
9072612623,-0.777081,-0.074903,1.060547
9072663540,-0.759134,-0.048271,1.079703
9072714461,-0.759124,-0.048281,1.079570
9072765383,-0.750161,-0.030898,1.069264
9072816302,-0.758980,-0.022036,1.059182
