Timestamp (us),X (a.u.),Y (a.u.),Z (a.u.)
1455688079,-1.248272,0.400483,0.073972
1455738648,-1.248304,0.400497,0.073986
1455789222,-1.239165,0.409809,0.083884
1455839792,-1.248513,0.409919,0.093917
1455890368,-1.239171,0.400662,0.083981
1455940941,-1.229887,0.400583,0.073980
1455991511,-1.248213,0.400368,0.063977
1456042084,-1.239143,0.418948,0.083778
1456092650,-1.248045,0.418503,0.053754
1456143217,-1.248276,0.418785,0.073784
1456244359,-1.239042,0.409665,0.073865
1456294932,-1.248169,0.418648,0.063771
1456345496,-1.229710,0.409563,0.063846
1456396067,-1.229578,0.446014,0.053447
1456446638,-1.239039,0.437114,0.073579
1456497201,-1.229594,0.446022,0.053451
1456547762,-1.228833,0.481662,-0.017018
1456598329,-1.209425,0.517105,-0.107521
1456648895,-1.180025,0.533311,-0.267796
1456699471,-1.123807,0.578090,-0.358476
1456750037,-1.076995,0.623092,-0.429114
1456800605,-1.030296,0.640778,-0.489395
1456851175,-1.022273,0.669791,-0.379670
1456901750,-1.022531,0.715901,-0.349963
1456952322,-1.087075,0.624154,-0.349066
1457002890,-1.189636,0.478824,-0.237291
1457053459,-1.282602,0.287263,-0.165128
1457104030,-1.328901,0.012771,-0.152124
1457154599,-1.292189,-0.325631,-0.158535
1457205170,-1.125939,-0.655136,-0.225212
1457255744,-0.904796,-0.938072,-0.252257
1457306314,-0.711502,-1.065216,-0.250917
1457356890,-0.619996,-1.109885,-0.200479
1457407467,-0.665049,-1.083865,-0.290818
1457458039,-0.681256,-0.995214,-0.491997
1457508617,-0.657692,-0.699551,-0.955571
1457559197,-0.544976,-0.115968,-1.132165
1457609764,-0.573323,-0.234180,-1.070675
1457660331,-0.731386,-0.416074,-0.938684
1457710905,-0.832609,-0.315924,-0.939724
1457761486,-0.916196,-0.095684,-0.861954
1457812072,-1.055458,-0.030788,-0.752476
1457862649,-1.149232,-0.148075,-0.601019
1457913225,-1.160224,-0.402184,-0.448127
1457963806,-1.152977,-0.601052,-0.275805
1458014385,-1.125926,-0.655123,-0.225177
1458064956,-1.089351,-0.718709,-0.204485
1458115533,-1.072254,-0.780998,-0.083667
1458166103,-1.016839,-0.835913,-0.103137
1458216678,-0.970925,-0.881282,-0.092636
1458267255,-0.925881,-0.925573,-0.002082
1458317838,-0.871418,-0.960967,0.068358
1458368406,-0.807428,-1.005877,0.108876
1458418973,-0.761618,-1.041960,0.129262
1458469538,-0.707133,-1.059041,0.199512
1458520106,-0.661414,-1.067545,0.229599
1458570679,-0.660561,-1.077786,0.149624
1458621249,-0.733027,-1.043062,0.039158
1458671818,-0.860485,-0.953965,-0.091910
1458722381,-1.062812,-0.753788,-0.103981
1458772944,-1.227739,-0.426111,-0.167574
1458823511,-1.309928,0.067054,-0.202793
1458874083,-1.291726,0.277941,-0.175066
1458924653,-1.282031,0.249866,-0.224910
1458975222,-1.309531,0.093952,-0.243237
1459025797,-1.318742,0.039023,-0.242575
1459076368,-1.310263,0.049170,-0.172566
1459126937,-1.328978,0.058642,-0.142603
1459177502,-1.319685,0.076843,-0.152859
1459228060,-1.319780,0.095275,-0.143043
1459278626,-1.319405,0.122302,-0.173317
1459329190,-1.301004,0.149833,-0.173670
1459379753,-1.309976,0.121945,-0.203534
1459430322,-1.301106,0.122400,-0.173513
1459480893,-1.310243,0.104054,-0.173179
1459531463,-1.310141,0.094770,-0.183093
1459582032,-1.319345,0.076432,-0.182866
1459632609,-1.319606,0.058413,-0.162702
1459683183,-1.328827,0.040075,-0.162503
1459733763,-1.329003,0.022054,-0.142213
1459784337,-1.319489,0.021686,-0.172270
1459834906,-1.329020,0.022054,-0.142236
1459885481,-1.319477,0.039981,-0.172465
1459936056,-1.319561,0.049264,-0.162527
1459986630,-1.319353,0.039844,-0.182447
1460037203,-1.319298,0.012266,-0.192224
1460087781,-1.328862,-0.087982,-0.161060
1460138353,-1.319851,-0.170132,-0.150225
1460188927,-1.292361,-0.261329,-0.139200
1460239496,-1.274142,-0.370878,-0.128048
1460290065,-1.219080,-0.489398,-0.116787
1460340637,-1.182103,-0.617548,-0.135432
1460391202,-1.098983,-0.709058,-0.164538
1460441776,-0.979363,-0.854841,-0.162990
1460492350,-0.878487,-0.963763,-0.131871
1460542922,-0.805607,-1.026476,-0.061117
1460593494,-0.751266,-1.080050,0.019529
1460644060,-0.714862,-1.088460,0.059664
1460694624,-0.752107,-1.060641,0.099431
1460745189,-0.816521,-1.006037,0.098859
1460795765,-0.861026,-0.971557,-0.041652
1460896909,-1.058100,-0.567617,-0.536653
1460947479,-1.125025,-0.573905,-0.306185
1460998048,-1.154392,-0.626716,-0.145377
1461048610,-1.043597,-0.791430,-0.183758
1461099179,-0.915312,-0.909103,-0.132513
1461149749,-0.823815,-0.990323,-0.081586
1461200328,-0.815228,-0.989402,-0.021470
1461250908,-0.861896,-0.961353,0.038324
1461301482,-0.907064,-0.926089,-0.042156
1461352053,-0.943041,-0.899946,-0.122585
1461402624,-0.978529,-0.846838,-0.243274
1461453195,-1.014353,-0.784207,-0.334063
1461503768,-1.062539,-0.772537,-0.133882
1461554337,-1.128005,-0.689127,-0.034597
1461604907,-1.183514,-0.615782,-0.005318
1461655475,-1.192624,-0.606826,-0.015430
1461706045,-1.174120,-0.616037,-0.025359
1461756614,-1.155776,-0.606644,-0.015436
1461807188,-1.174228,-0.615900,-0.015345
1461857759,-1.193014,-0.569679,0.024228
1461908336,-1.192728,-0.579259,-0.005716
1461958904,-1.210909,-0.570459,-0.025826
1462009479,-1.183636,-0.615657,0.004688
1462060051,-1.147263,-0.660676,0.045211
1462161186,-1.081842,-0.771558,-0.053794
1462211758,-1.054239,-0.826301,-0.053206
1462262335,-1.008095,-0.853651,-0.062930
1462312902,-0.971280,-0.899200,-0.062441
1462363461,-0.925061,-0.926739,-0.082219
1462414032,-0.888570,-0.971877,-0.051688
1462464606,-0.860965,-0.990063,-0.051514
1462515172,-0.833253,-0.999259,-0.061467
1462565740,-0.833351,-1.008231,-0.051328
1462616308,-0.823939,-1.026757,-0.071165
1462666876,-0.824164,-1.017375,-0.051258
1462717447,-0.823828,-1.008618,-0.081391
1462818597,-0.851541,-0.990295,-0.071546
1462869172,-0.869508,-0.972613,-0.111773
1462919741,-0.914983,-0.927772,-0.162312
1462970312,-1.007032,-0.855035,-0.163088
1463020880,-1.126704,-0.672474,-0.154934
1463071448,-1.264558,-0.380552,-0.168076
1463122026,-1.327879,0.011402,-0.252329
1463172605,-1.299987,0.111879,-0.273479
1463223179,-1.300006,-0.126089,-0.280872
1463273756,-1.198765,-0.500941,-0.296974
1463324333,-0.986982,-0.811280,-0.313848
1463374907,-0.794488,-1.010699,-0.241692
1463425478,-0.777894,-1.035672,-0.071068
1463476052,-0.824246,-1.026307,-0.041100
1463526619,-0.823384,-0.999998,-0.121531
1463577185,-0.905793,-0.927766,-0.162369
1463627748,-0.969783,-0.864577,-0.203094
1463678317,-0.959672,-0.847283,-0.283289
1463728885,-0.921997,-0.875649,-0.363103
1463779456,-0.820433,-0.930511,-0.392704
1463830014,-0.701426,-1.029740,-0.331533
1463880588,-0.555231,-1.137416,-0.230207
1463931157,-0.418217,-1.190339,-0.129609
1463981726,-0.345431,-1.225518,-0.049150
1464032294,-0.290493,-1.206511,-0.019304
1464082861,-0.244248,-1.234060,-0.039071
1464133429,-0.225405,-1.225304,-0.079185
1464184000,-0.261582,-1.217195,-0.139382
1464234575,-0.427205,-1.181485,-0.149704
1464285157,-0.684447,-1.082783,-0.200815
1464335734,-0.986036,-0.812544,-0.404110
1464386317,-1.141132,-0.457968,-0.517845
1464436891,-1.216387,-0.437952,-0.367743
1464487461,-1.217066,-0.510300,-0.306837
1464538032,-1.217296,-0.510037,-0.286857
1464588597,-1.217511,-0.509763,-0.266830
1464639163,-1.226947,-0.527827,-0.246606
1464689731,-1.208443,-0.537037,-0.256567
1464740292,-1.217831,-0.527637,-0.236559
1464790857,-1.217515,-0.537195,-0.266497
1464841428,-1.217627,-0.500489,-0.256954
1464891992,-1.227386,-0.518143,-0.206683
1464942568,-1.218160,-0.518300,-0.216904
1464993135,-1.217732,-0.518637,-0.246706
1465043700,-1.217753,-0.527795,-0.246647
1465094268,-1.226984,-0.536996,-0.246584
1465144839,-1.208443,-0.537037,-0.256567
1465195405,-1.190029,-0.564384,-0.256241
1465245972,-1.190036,-0.573531,-0.256143
1465296538,-1.180862,-0.582659,-0.256127
1465347101,-1.171663,-0.619195,-0.255701
1465397666,-1.134683,-0.683359,-0.275143
1465448238,-1.098072,-0.756054,-0.254223
1465498811,-1.014735,-0.838714,-0.303530
1465549379,-0.904052,-0.911641,-0.322769
1465599948,-0.811904,-1.002789,-0.331739
1465650516,-0.710437,-1.048372,-0.351414
1465701084,-0.544182,-1.112301,-0.400800
1465751659,-0.387774,-1.157178,-0.390351
1465802227,-0.241114,-1.201390,-0.329783
1465852800,-0.140371,-1.227704,-0.279509
1465903358,-0.094758,-1.236115,-0.239412
1465953922,-0.095630,-1.244145,-0.159171
1466004494,-0.143076,-1.251727,-0.028886
1466055062,-0.170912,-1.251605,-0.008857
1466105620,-0.114035,-1.235106,-0.159289
1466156186,-0.185856,-1.210353,-0.329854
1466206767,-0.285278,-1.130772,-0.500823
1466257344,-0.424811,-1.138802,-0.370563
1466307917,-0.563124,-1.093407,-0.350923
1466358491,-0.581974,-1.092967,-0.310911
1466409065,-0.563344,-1.093177,-0.330996
1466459635,-0.590201,-1.075924,-0.401174
1466510202,-0.590637,-1.084525,-0.361024
1466560773,-0.564000,-1.119734,-0.270483
1466611341,-0.499132,-1.147470,-0.310353
1466661910,-0.379437,-1.174336,-0.310053
