Timestamp (us),X (a.u.),Y (a.u.),Z (a.u.)
7488846459,-0.351097,0.068015,-1.307674
7488896310,-0.332874,0.067993,-1.297543
7488946155,-0.332883,0.067994,-1.297737
7488996003,-0.351131,0.067886,-1.327512
7489045848,-0.342004,0.067973,-1.307764
7489095700,-0.342031,0.067911,-1.317882
7489145554,-0.332938,0.067869,-1.317972
7489195408,-0.350997,0.077047,-1.307554
7489295110,-0.341967,0.068034,-1.297453
7489344961,-0.341977,0.068036,-1.297647
7489394814,-0.351104,0.067948,-1.317398
7489444659,-0.342058,0.067848,-1.327999
7489494509,-0.342013,0.067975,-1.307960
7489544352,-0.323719,0.076922,-1.307824
7489594201,-0.332875,0.076840,-1.328164
7489644043,-0.332955,0.067804,-1.327891
7489693889,-0.341931,0.076943,-1.317760
7489743734,-0.332909,0.067863,-1.317382
7489793583,-0.342157,0.058816,-1.328123
7489843430,-0.342023,0.067977,-1.308156
7489893280,-0.332839,0.076901,-1.317850
7489943128,-0.342031,0.067911,-1.317882
7489992978,-0.332911,0.067932,-1.307855
7490042825,-0.342040,0.067913,-1.318079
7490092677,-0.342120,0.058877,-1.317807
7490142527,-0.333018,0.058833,-1.317700
7490192377,-0.342093,0.058939,-1.307689
7490242223,-0.332901,0.067930,-1.307659
7490292065,-0.323925,0.058792,-1.317790
7490341911,-0.333027,0.058835,-1.317897
7490391758,-0.324059,0.049631,-1.337747
7490441599,-0.351283,0.049881,-1.317248
7490491449,-0.333070,0.049861,-1.307314
7490541294,-0.360386,0.049925,-1.317354
7490591146,-0.360465,0.040889,-1.317083
7490640990,-0.369614,0.032025,-1.297076
7490690841,-0.360448,0.040954,-1.307163
7490740686,-0.378769,0.023096,-1.286793
7490790530,-0.378955,0.004964,-1.296373
7490840369,-0.388226,-0.013062,-1.296133
7490940053,-0.379733,-0.076275,-1.285583
7490989895,-0.380064,-0.112347,-1.275169
7491039737,-0.371456,-0.157622,-1.285190
7491089581,-0.362757,-0.202706,-1.264673
7491139422,-0.372308,-0.247838,-1.264398
7491189265,-0.354559,-0.293085,-1.264013
7491239109,-0.363956,-0.329053,-1.243391
7491288950,-0.364359,-0.374103,-1.222968
7491338793,-0.364312,-0.374027,-1.212486
7491388633,-0.364476,-0.383200,-1.233010
7491438477,-0.373452,-0.374062,-1.222877
7491488315,-0.364386,-0.374166,-1.233085
7491538160,-0.355320,-0.374270,-1.243292
7491588018,-0.364207,-0.356098,-1.233235
7491637868,-0.373111,-0.337983,-1.233110
7491687716,-0.364135,-0.347121,-1.243241
7491737562,-0.363993,-0.329122,-1.253695
7491787401,-0.373094,-0.337926,-1.223177
7491837248,-0.364072,-0.338150,-1.253432
7491887083,-0.373049,-0.329012,-1.243301
7491936926,-0.373121,-0.337989,-1.233295
7491986780,-0.354900,-0.329164,-1.253785
7492036622,-0.363903,-0.320088,-1.253770
7492086472,-0.363804,-0.311049,-1.253657
7492136323,-0.372780,-0.301910,-1.243526
7492186173,-0.372870,-0.310944,-1.243451
7492236024,-0.354711,-0.311090,-1.253747
7492285875,-0.363670,-0.301895,-1.233685
7492335727,-0.372797,-0.301968,-1.253454
7492385576,-0.372959,-0.319978,-1.243376
7492435432,-0.390950,-0.301770,-1.233415
7492485285,-0.400132,-0.310762,-1.233249
7492535133,-0.400016,-0.301666,-1.223207
7492584988,-0.400195,-0.319733,-1.223057
7492634843,-0.418455,-0.328627,-1.212866
7492684694,-0.418304,-0.319513,-1.202280
7492734540,-0.427373,-0.310569,-1.222678
7492784390,-0.445738,-0.328553,-1.222347
7492834239,-0.463691,-0.310277,-1.202085
7492884085,-0.481670,-0.292064,-1.191939
7492933929,-0.499640,-0.264951,-1.202461
7492983775,-0.499153,-0.219714,-1.192538
7493033620,-0.525909,-0.165446,-1.202654
7493083468,-0.534307,-0.102042,-1.182680
7493133324,-0.560786,-0.011769,-1.213685
7493183177,-0.578091,0.078654,-1.214438
7493233027,-0.577219,0.160151,-1.184939
7493282877,-0.585121,0.259926,-1.124453
7493332741,-0.638943,0.323662,-1.083979
7493382600,-0.665592,0.378247,-1.043858
7493432458,-0.701067,0.459978,-1.003860
7493482318,-0.718581,0.505648,-0.932950
7493532181,-0.763399,0.551537,-0.852088
7493582035,-0.808444,0.579311,-0.781290
7493631902,-0.880968,0.571212,-0.679094
7493681750,-0.926491,0.544746,-0.607511
7493731599,-0.972015,0.527286,-0.546395
7493781444,-1.008673,0.482659,-0.484955
7493831289,-1.054310,0.447098,-0.423430
7493881137,-1.082170,0.375266,-0.371980
7493930986,-1.100963,0.303331,-0.330735
7493980827,-1.129062,0.204529,-0.258872
7494030667,-1.157245,0.105469,-0.227424
7494080500,-1.176362,0.006304,-0.206183
7494130350,-1.158990,-0.083930,-0.175261
7494180191,-1.159821,-0.165237,-0.174619
7494230039,-1.142271,-0.237464,-0.153931
7494279891,-1.124801,-0.309819,-0.153511
7494329746,-1.116180,-0.355036,-0.153256
7494379586,-1.107393,-0.391144,-0.142898
7494429431,-1.098721,-0.436293,-0.132496
7494479276,-1.071668,-0.454501,-0.132671
7494529126,-1.062874,-0.481763,-0.152746
7494578972,-1.027119,-0.536322,-0.183014
7494628831,-0.991359,-0.590829,-0.203200
7494728528,-0.937799,-0.672877,-0.283979
7494778390,-0.901639,-0.691224,-0.304375
7494828245,-0.874974,-0.728013,-0.385413
7494878098,-0.820861,-0.755840,-0.466541
7494927949,-0.775881,-0.774854,-0.588158
7494977801,-0.694394,-0.784841,-0.680044
7495027650,-0.639908,-0.776433,-0.741365
7495077500,-0.594468,-0.759027,-0.812914
7495127353,-0.558051,-0.741439,-0.864019
7495177208,-0.521483,-0.705881,-0.935227
7495227058,-0.484928,-0.670302,-0.996735
7495276913,-0.457337,-0.625571,-1.047968
7495326762,-0.420641,-0.580870,-1.099125
7495376621,-0.402099,-0.535983,-1.130199
7495426468,-0.392436,-0.464075,-1.181655
7495476320,-0.400892,-0.400788,-1.181912
7495526169,-0.400309,-0.337670,-1.202491
7495576016,-0.409030,-0.292595,-1.223376
7495625867,-0.417835,-0.256601,-1.253754
7495675722,-0.417489,-0.220469,-1.254243
7495725570,-0.444473,-0.193179,-1.244078
7495775427,-0.453181,-0.156939,-1.234169
7495825283,-0.471012,-0.120778,-1.244035
7495875131,-0.479483,-0.048655,-1.275084
7495924977,-0.505910,0.024055,-1.224826
7495974824,-0.550991,0.060461,-1.214558
7496024666,-0.577797,0.105886,-1.194787
7496074510,-0.595865,0.114998,-1.194323
7496124354,-0.604842,0.124136,-1.184190
7496174216,-0.595797,0.132884,-1.225193
7496224076,-0.550204,0.150619,-1.246034
7496273926,-0.504689,0.159316,-1.266611
7496323777,-0.477132,0.195140,-1.297539
7496373621,-0.459020,0.186089,-1.287718
7496423467,-0.431864,0.185646,-1.338390
7496473318,-0.349953,0.203089,-1.379828
7496523173,-0.295117,0.238788,-1.411026
7496573028,-0.240308,0.265572,-1.421699
7496622881,-0.185920,0.256100,-1.452518
7496672738,-0.104087,0.255731,-1.453545
7496722585,-0.058842,0.246170,-1.504292
7496772433,0.004688,0.236792,-1.515416
7496822278,0.040858,0.218490,-1.525520
7496921970,0.076489,0.145985,-1.535172
7496971816,0.085080,0.100648,-1.555122
7497021675,0.084604,0.055417,-1.565096
7497071529,0.048227,0.046735,-1.533848
7497121379,-0.069877,0.047528,-1.492434
7497171240,-0.197292,0.030233,-1.461104
7497221089,-0.342669,0.031149,-1.418967
7497270939,-0.406062,0.049697,-1.388130
7497320794,-0.424027,0.067975,-1.368066
7497370651,-0.460603,0.041163,-1.347038
7497420508,-0.469798,0.032172,-1.347074
7497470354,-0.460268,0.068389,-1.326827
7497520199,-0.478442,0.068470,-1.326448
7497570056,-0.487562,0.068449,-1.336474
7497619904,-0.478592,0.050531,-1.306457
7497669760,-0.469259,0.077462,-1.326613
7497719607,-0.433183,0.050132,-1.336865
7497769458,-0.405631,0.077175,-1.327641
7497819303,-0.351179,0.076675,-1.368658
7497869151,-0.351384,0.049696,-1.347994
7497919000,-0.405666,0.068267,-1.307329
7497968853,-0.451024,0.068726,-1.266402
7498018703,-0.487408,0.059980,-1.245355
7498068550,-0.478342,0.059876,-1.255561
7498118403,-0.514824,0.042164,-1.224886
7498168257,-0.533011,0.042247,-1.224706
7498218103,-0.542291,0.015375,-1.194038
7498267958,-0.569772,-0.011413,-1.163365
7498317812,-0.578830,-0.002463,-1.183588
7498367666,-0.588056,-0.029210,-1.132678
7498417529,-0.597239,-0.038202,-1.132513
7498467393,-0.597376,-0.056207,-1.122075
7498517243,-0.615267,-0.028960,-1.112002
7498567100,-0.615344,-0.037931,-1.101976
7498616953,-0.633298,-0.019654,-1.081708
7498666807,-0.624014,-0.001564,-1.071991
7498716664,-0.642010,0.016652,-1.062001
7498766519,-0.651038,0.007907,-1.020884
7498816365,-0.660185,0.007823,-1.041029
7498866223,-0.678236,0.008220,-0.990261
7498916084,-0.704976,0.053767,-0.950041
7498965940,-0.723235,0.044815,-0.949641
7499015799,-0.741339,0.036305,-0.878698
7499065649,-0.759856,0.000314,-0.868098
7499115504,-0.778221,-0.026454,-0.827344
7499165357,-0.777943,-0.008198,-0.797010
7499215209,-0.777603,0.027940,-0.797433
7499265066,-0.786345,0.046360,-0.746661
7499314916,-0.813473,0.055709,-0.716224
7499364767,-0.813256,0.064992,-0.675718
7499414616,-0.831882,0.019970,-0.665149
7499464463,-0.804925,-0.016165,-0.644982
7499514314,-0.777457,0.010625,-0.675839
7499564162,-0.768095,0.037686,-0.676154
7499614021,-0.740582,0.055755,-0.656334
7499663876,-0.749783,0.037852,-0.635754
7499713730,-0.749693,0.046886,-0.635829
7499763574,-0.731516,0.046738,-0.646027
7499813426,-0.713214,0.055751,-0.636165
7499863286,-0.713283,0.046847,-0.616048
7499913140,-0.695117,0.046634,-0.636271
7499962988,-0.686181,0.028653,-0.616168
7500012838,-0.695402,0.019534,-0.636145
7500062684,-0.677278,0.010479,-0.626131
7500112537,-0.677573,-0.016686,-0.636025
7500162392,-0.668656,-0.025886,-0.656482
7500212242,-0.659441,-0.016894,-0.656443
7500262098,-0.668588,-0.016978,-0.676591
7500311945,-0.677709,-0.016999,-0.686619
7500361796,-0.677693,-0.017000,-0.686513
7500411639,-0.686829,-0.017021,-0.696648
7500461492,-0.695664,0.010059,-0.706793
7500511340,-0.695600,0.010249,-0.676545
7500561185,-0.731551,0.046742,-0.646229
7500611041,-0.740394,0.064975,-0.625950
7500660891,-0.776408,0.092498,-0.585431
7500710741,-0.803759,0.074805,-0.544529
7500760589,-0.822375,0.029715,-0.543887
7500810445,-0.840694,0.011791,-0.533353
7500860300,-0.859016,0.002779,-0.543301
7500910156,-0.850164,-0.024302,-0.533047
7500960004,-0.868618,-0.042538,-0.573102
7501009859,-0.868735,-0.051635,-0.583145
7501059714,-0.878046,-0.060878,-0.623547
7501109558,-0.878092,-0.052158,-0.674216
7501159404,-0.878104,-0.043312,-0.704757
7501209248,-0.860012,-0.043709,-0.755306
7501259099,-0.860272,-0.061965,-0.785509
7501308943,-0.842366,-0.080305,-0.816017
7501358794,-0.842439,-0.071647,-0.876805
7501408652,-0.823968,-0.035719,-0.897660
7501458506,-0.832998,-0.017923,-0.948178
7501508351,-0.832990,-0.017860,-0.938202
7501558198,-0.869236,-0.017443,-0.897223
7501608054,-0.896320,-0.016816,-0.816126
7501657907,-0.923850,-0.052577,-0.775074
7501707758,-0.969635,-0.097288,-0.733653
7501757611,-1.006149,-0.132756,-0.652040
7501807462,-1.033827,-0.186462,-0.590699
7501857310,-1.042902,-0.195204,-0.550053
7501907158,-1.051953,-0.203943,-0.509325
7502006850,-1.060795,-0.176681,-0.489458
7502056701,-1.060894,-0.185896,-0.519503
7502106548,-1.052061,-0.204194,-0.549800
7502156394,-1.043014,-0.195515,-0.600560
7502206233,-1.015900,-0.196076,-0.671558
7502256084,-0.979868,-0.223414,-0.682024
7502305933,-0.961977,-0.250663,-0.692099
7502355780,-0.961995,-0.259626,-0.681691
7502405630,-0.943866,-0.268622,-0.661665
7502455479,-0.962126,-0.295144,-0.580400
7502505326,-0.998387,-0.303683,-0.529109
7502555173,-1.025395,-0.302931,-0.427679
7502605028,-1.034690,-0.320962,-0.427508
7502654885,-1.016356,-0.311828,-0.397477
7502704735,-1.025609,-0.338638,-0.356686
7502754582,-1.025439,-0.329416,-0.326404
7502804438,-1.016291,-0.329332,-0.306257
7502854291,-1.034591,-0.338288,-0.306054
7502904142,-1.025133,-0.311150,-0.296096
7502953996,-1.025179,-0.311159,-0.296198
7503003843,-1.043131,-0.284153,-0.326489
7503053693,-1.024925,-0.275215,-0.326910
7503103550,-1.015863,-0.275378,-0.347183
7503153400,-0.997430,-0.248363,-0.347646
7503203247,-0.997449,-0.239580,-0.388203
7503253089,-0.997404,-0.239573,-0.388075
7503302927,-0.997395,-0.239454,-0.367962
7503352764,-0.997229,-0.230291,-0.347738
7503402609,-1.015213,-0.220863,-0.297089
7503452465,-1.024023,-0.202562,-0.266741
7503502313,-1.023915,-0.202311,-0.226266
7503552163,-1.015028,-0.220484,-0.236325
7503602014,-1.033160,-0.220275,-0.215907
7503651869,-1.033083,-0.220147,-0.195633
7503701716,-1.024017,-0.220251,-0.205840
7503751567,-1.024017,-0.220251,-0.205840
7503801423,-1.023811,-0.202120,-0.195873
7503851281,-1.023811,-0.202120,-0.195873
7503901139,-1.032904,-0.202079,-0.195783
7503950986,-1.023744,-0.193089,-0.195984
7504000833,-1.014535,-0.184034,-0.186030
7504050684,-1.014418,-0.174937,-0.175987
7504100533,-1.023628,-0.183992,-0.185940
7504150385,-1.014472,-0.175062,-0.196224
7504200239,-1.023355,-0.156829,-0.176080
7504250085,-1.005146,-0.156910,-0.176227
7504299927,-1.023243,-0.147793,-0.176122
7504349776,-1.005146,-0.147882,-0.176435
7504399621,-0.995757,-0.129787,-0.166423
7504449474,-1.005029,-0.147813,-0.166183
7504499319,-0.986865,-0.147898,-0.166395
7504549171,-0.995886,-0.147791,-0.156124
7504599019,-0.986699,-0.138737,-0.146201
7504648876,-0.986528,-0.129515,-0.115919
7504698729,-0.986444,-0.120543,-0.126087
7504748587,-0.977310,-0.111614,-0.136397
7504798441,-0.968084,-0.102620,-0.136507
7504848296,-0.986140,-0.084532,-0.146622
7504898142,-0.977153,-0.093546,-0.136575
7504947988,-0.968043,-0.093649,-0.146727
7504997845,-0.986162,-0.084533,-0.146651
7505047697,-0.958649,-0.066464,-0.126834
7505097549,-0.967707,-0.057514,-0.147056
7505147400,-0.958730,-0.066652,-0.157190
7505197242,-0.949631,-0.066631,-0.147191
7505247083,-0.958641,-0.057618,-0.157265
7505296926,-0.949718,-0.066882,-0.187637
7505346774,-0.958605,-0.048709,-0.177578
7505396613,-0.949512,-0.048751,-0.177669
7505446456,-0.958583,-0.048710,-0.177545
7505496302,-0.949656,-0.057910,-0.197831
7505546143,-0.949667,-0.058036,-0.217991
7505595979,-0.967869,-0.057890,-0.207770
7505645819,-0.967780,-0.048856,-0.207845
7505695656,-0.976984,-0.057848,-0.207717
7505745493,-0.967864,-0.057827,-0.197687
7505795340,-0.968048,-0.075958,-0.207620
7505845174,-0.967986,-0.066987,-0.217814
7505895016,-0.977047,-0.066820,-0.197522
7505944856,-0.968111,-0.084929,-0.197426
7505994699,-0.977038,-0.075728,-0.177139
7506044538,-0.977315,-0.093922,-0.197297
7506094377,-0.977413,-0.111803,-0.166786
7506144216,-0.977597,-0.129933,-0.176723
7506194065,-0.977660,-0.138904,-0.166529
7506243906,-0.977834,-0.156911,-0.156290
7506293751,-0.968835,-0.166048,-0.166394
7506343597,-0.978053,-0.183949,-0.145916
7506393447,-0.978148,-0.193044,-0.155929
7506443303,-0.969269,-0.220062,-0.135559
7506493149,-0.978501,-0.229120,-0.145540
7506542994,-0.951517,-0.256410,-0.155705
7506592843,-0.951848,-0.292483,-0.145286
7506642685,-0.952021,-0.310493,-0.135044
7506692548,-0.924857,-0.319715,-0.145360
7506742400,-0.925099,-0.346755,-0.135015
7506792251,-0.925394,-0.373921,-0.144910
