Timestamp (us),X (a.u.),Y (a.u.),Z (a.u.)
1025769610,-0.696442,0.857421,0.111904
1025820035,-0.705437,0.857508,0.101966
1025870463,-0.705325,0.857513,0.092118
1025920897,-0.696167,0.848295,0.092282
1025971321,-0.705183,0.866732,0.072419
1026021749,-0.705517,0.857430,0.111737
1026072183,-0.705510,0.866693,0.101939
1026122612,-0.696044,0.848277,0.082412
1026173048,-0.696239,0.857480,0.092253
1026223482,-0.714381,0.866760,0.082133
1026273907,-0.714647,0.857560,0.111704
1026324336,-0.723563,0.857725,0.091993
1026374765,-0.696207,0.857407,0.092180
1026425196,-0.696207,0.857407,0.092180
1026475627,-0.705437,0.857508,0.101966
1026526060,-0.696431,0.857397,0.111877
1026576485,-0.696199,0.866670,0.082374
1026626908,-0.696493,0.866557,0.111824
1026677339,-0.705449,0.857532,0.101992
1026727764,-0.714403,0.866808,0.082178
1026778193,-0.687110,0.857350,0.092291
1026828621,-0.705449,0.857532,0.101992
1026879055,-0.705144,0.857620,0.072515
1026929482,-0.696391,0.866587,0.102000
1026979907,-0.705510,0.866693,0.101939
1027030329,-0.705376,0.848347,0.102019
1027080761,-0.705419,0.866746,0.092137
1027131198,-0.714545,0.857589,0.101880
1027181630,-0.696330,0.857426,0.102053
1027232064,-0.714495,0.848453,0.101958
1027282489,-0.696228,0.857456,0.092229
1027332911,-0.687121,0.857374,0.092315
1027383344,-0.714444,0.857619,0.092055
1027433768,-0.696374,0.857523,0.102155
1027484213,-0.705713,0.866634,0.121590
1027534643,-0.714708,0.866720,0.111651
1027585066,-0.714545,0.857589,0.101880
1027635494,-0.705347,0.857561,0.092166
1027685921,-0.705275,0.848377,0.092195
1027736346,-0.696453,0.857445,0.111931
1027786769,-0.714455,0.857643,0.092080
1027837184,-0.705325,0.857513,0.092118
1027887619,-0.705550,0.857503,0.111817
1027938041,-0.714229,0.857653,0.072385
1027988456,-0.705173,0.848406,0.082371
1028038874,-0.714432,0.857594,0.092031
1028089301,-0.705253,0.848329,0.092147
1028139733,-0.705499,0.866668,0.101913
1028190148,-0.696055,0.848301,0.082435
1028240572,-0.714556,0.857614,0.101905
1028290997,-0.714270,0.848464,0.082261
1028341423,-0.714455,0.857643,0.092080
1028391843,-0.714353,0.857672,0.082254
1028442262,-0.714078,0.848547,0.062635
1028492675,-0.696015,0.857490,0.072559
1028543091,-0.705234,0.857566,0.082318
1028593499,-0.696178,0.848319,0.092306
1028643912,-0.696077,0.848349,0.082480
1028694332,-0.705234,0.857566,0.082318
1028744752,-0.705275,0.848377,0.092195
1028795166,-0.714477,0.857691,0.092128
1028845595,-0.714263,0.857726,0.072450
1028896015,-0.705072,0.848436,0.072546
1028946431,-0.704533,0.830209,0.033339
1028996848,-0.722332,0.812163,0.003815
1029047261,-0.730934,0.794088,-0.035450
1029097690,-0.757267,0.757828,-0.104279
1029148128,-0.783423,0.703368,-0.182819
1029198560,-0.800362,0.630524,-0.261212
1029248983,-0.844010,0.530517,-0.378988
1029299400,-0.860579,0.411778,-0.456934
1029349817,-0.895008,0.247499,-0.544800
1029400242,-0.920606,0.083024,-0.602981
1029450668,-0.955436,-0.099722,-0.641717
1029501097,-0.953995,-0.282876,-0.660231
1029551528,-0.962431,-0.466148,-0.610359
1029601955,-0.962102,-0.658804,-0.510726
1029652379,-0.980307,-0.814664,-0.411818
1029702802,-0.962822,-0.961882,-0.243763
1029753224,-0.945838,-1.054186,-0.066247
1029803661,-0.937941,-1.118872,0.091420
1029854096,-0.920886,-1.156075,0.229322
1029904536,-0.885932,-1.166016,0.377148
1029954971,-0.878245,-1.166508,0.514793
1030005404,-0.861395,-1.157879,0.642548
1030055832,-0.826881,-1.112861,0.799698
1030106265,-0.792557,-1.058738,0.966860
1030156701,-0.767171,-0.995290,1.113950
1030207134,-0.732848,-0.895274,1.251419
1030257562,-0.707956,-0.776911,1.408384
1030308004,-0.664277,-0.649362,1.506115
1030358430,-0.611788,-0.494449,1.613804
1030408858,-0.549795,-0.339498,1.682523
1030459292,-0.514975,-0.156742,1.720620
1030560158,-0.444252,0.144882,1.729890
1030610595,-0.381333,0.254207,1.739688
1030661022,-0.363512,0.327371,1.729861
1030711461,-0.336483,0.418790,1.699622
1030761900,-0.299979,0.482749,1.650715
1030812329,-0.281964,0.574290,1.610825
1030862758,-0.254543,0.665854,1.541786
1030913192,-0.227145,0.729900,1.492771
1030963621,-0.227025,0.803360,1.433395
1031014050,-0.208365,0.858395,1.354646
1031064480,-0.198569,0.922759,1.246281
1031114907,-0.170595,0.977745,1.147798
1031165340,-0.151506,1.014520,1.039539
1031215762,-0.168687,1.042516,0.921332
1031266188,-0.177069,1.070397,0.832932
1031316610,-0.167329,1.097975,0.754026
1031367038,-0.184872,1.089126,0.694861
1031417461,-0.211654,1.098792,0.635915
1031467888,-0.201812,1.080538,0.577063
1031518309,-0.228443,1.099310,0.498023
1031568742,-0.245724,1.081387,0.419372
1031619166,-0.254185,1.090863,0.350532
1031669597,-0.261894,1.063844,0.232756
1031720028,-0.288443,1.055106,0.163736
1031770444,-0.314425,1.037382,0.045690
1031820865,-0.340679,0.982924,-0.023006
1031871289,-0.375648,0.946960,-0.141065
1031921709,-0.419830,0.883433,-0.229510
1031972136,-0.472814,0.801828,-0.337641
1032022564,-0.507983,0.719917,-0.406282
1032073011,-0.552090,0.628936,-0.484725
1032123442,-0.614529,0.538129,-0.553629
1032173871,-0.650125,0.474451,-0.592902
1032224309,-0.667709,0.410551,-0.612354
1032274745,-0.694360,0.355922,-0.641770
1032325181,-0.721255,0.292044,-0.641660
1032375609,-0.730077,0.264674,-0.651412
1032426044,-0.729792,0.237222,-0.661078
1032476471,-0.757166,0.228290,-0.651539
1032526911,-0.738777,0.218983,-0.661059
1032577345,-0.757166,0.228290,-0.651539
1032627784,-0.757289,0.246611,-0.651645
1032678219,-0.757585,0.274077,-0.642055
1032728652,-0.748661,0.301478,-0.642127
1032779085,-0.749108,0.338061,-0.622685
1032829506,-0.740213,0.356257,-0.612804
1032879932,-0.731503,0.383613,-0.593295
1032930361,-0.722384,0.383516,-0.593138
1032980795,-0.722496,0.401821,-0.593173
1033031226,-0.722659,0.410952,-0.583401
1033081647,-0.713551,0.410871,-0.583315
1033132075,-0.713287,0.401769,-0.602910
1033182499,-0.713257,0.392656,-0.603073
1033232929,-0.731553,0.392758,-0.593277
1033283355,-0.731196,0.374450,-0.612603
1033333784,-0.731156,0.365320,-0.612696
1033384218,-0.757901,0.338216,-0.652174
1033434649,-0.721478,0.310335,-0.631941
1033485085,-0.748853,0.301405,-0.622399
1033535525,-0.739430,0.283075,-0.641935
1033585959,-0.730394,0.310490,-0.651755
1033636391,-0.721631,0.319452,-0.622095
1033686823,-0.739104,0.283135,-0.671253
1033737256,-0.765158,0.164477,-0.720212
1033787688,-0.809361,-0.018310,-0.729326
1033838117,-0.853426,-0.265306,-0.708505
1033888562,-0.916576,-0.539898,-0.589705
1033939002,-0.981484,-0.805827,-0.303804
1033989438,-1.020668,-1.017391,0.099860
1034039875,-1.043731,-1.055349,0.591203
1034090307,-1.013006,-0.919657,1.052716
1034140739,-0.955513,-0.591619,1.444499
1034191177,-0.887621,-0.134802,1.629025
1034241609,-0.808583,0.331721,1.607691
1034292035,-0.709235,0.734379,1.429016
1034342467,-0.589708,1.018222,1.134111
1034392897,-0.488015,1.173760,0.888357
1034443328,-0.431746,1.219631,0.701926
1034493767,-0.367059,1.246865,0.594293
1034544203,-0.375619,1.256283,0.535200
1034594635,-0.366821,1.256145,0.564852
1034645070,-0.376436,1.256080,0.613900
1034695510,-0.367860,1.246568,0.672690
1034745950,-0.404748,1.237649,0.721732
1034796384,-0.433011,1.228378,0.819532
1034846821,-0.470587,1.182612,0.957544
1034897253,-0.508856,1.108948,1.183497
1034947687,-0.583156,0.943974,1.429430
1034998130,-0.692499,0.651185,1.626150
1035048572,-0.781811,0.248695,1.716275
1035099012,-0.859325,-0.217378,1.590229
1035149438,-0.925474,-0.673684,1.238505
1035199882,-0.981416,-1.010451,0.699734
1035250339,-1.002285,-1.090937,0.129958
1035300796,-0.980029,-0.952263,-0.352155
1035351258,-0.933862,-0.585359,-0.648489
1035401716,-0.891425,-0.091051,-0.670559
1035452174,-0.805438,0.365562,-0.475850
1035502631,-0.700368,0.675438,-0.270324
1035553091,-0.656965,0.812085,-0.152776
1035603550,-0.620729,0.857566,-0.162509
1035654006,-0.629410,0.839415,-0.191962
1035704476,-0.637937,0.812157,-0.231208
1035754934,-0.646821,0.793947,-0.241015
1035805390,-0.673504,0.757689,-0.280393
1035855843,-0.664122,0.748484,-0.299877
1035906301,-0.664446,0.748440,-0.270452
1035956757,-0.664407,0.748351,-0.270349
1036007212,-0.664488,0.757556,-0.270453
1036057664,-0.673595,0.757638,-0.270540
1036108124,-0.664294,0.757637,-0.290133
1036158579,-0.682439,0.748618,-0.290225
1036209027,-0.673362,0.739324,-0.280233
1036259491,-0.682327,0.748625,-0.300021
1036309950,-0.673310,0.730186,-0.280207
1036360408,-0.664071,0.739345,-0.299854
1036410867,-0.691506,0.739583,-0.290316
1036461323,-0.691526,0.730349,-0.280380
