Timestamp (us),X (a.u.),Y (a.u.),Z (a.u.)
458727862,-0.520444,-0.669308,-0.857851
458778446,-0.529760,-0.687486,-0.847733
458829033,-0.520355,-0.696836,-0.867358
458879614,-0.511151,-0.687644,-0.867338
458930196,-0.511054,-0.696958,-0.877525
458980769,-0.511140,-0.669387,-0.867654
459031341,-0.501969,-0.705901,-0.867388
459081911,-0.483687,-0.714801,-0.857257
459132489,-0.474609,-0.732894,-0.847146
459183068,-0.447370,-0.778037,-0.816911
459233667,-0.410938,-0.832308,-0.786802
459284224,-0.347140,-0.895229,-0.736221
459334792,-0.246774,-0.966895,-0.666052
459385362,-0.174202,-1.056772,-0.576172
459435930,-0.101283,-1.064713,-0.516412
459486505,-0.047198,-1.099624,-0.416776
459537070,-0.028807,-1.136147,-0.416575
459587640,-0.047496,-1.099281,-0.387190
459638215,-0.029038,-1.117517,-0.396690
459688793,-0.010538,-1.117568,-0.406614
459739377,-0.064620,-1.091814,-0.506211
459789959,-0.192598,-1.038524,-0.576113
459840536,-0.394672,-0.984936,-0.596553
459891113,-0.698176,-0.858270,-0.587728
459941693,-1.011974,-0.593191,-0.471573
459992276,-1.149321,-0.347701,-0.513766
460042858,-1.000399,-0.541316,-0.690409
460093446,-0.622765,-0.805455,-0.757152
460144034,-0.226971,-0.941203,-0.795504
460194618,-0.035372,-1.002363,-0.656001
460245197,-0.128797,-1.119811,-0.525814
460295773,0.001482,-1.047986,-0.665352
460346346,0.046160,-1.100982,-0.545832
460396912,0.064670,-1.101054,-0.555839
460447495,0.000385,-1.119758,-0.565544
460498085,-0.265885,-1.094104,-0.605347
460548669,-0.708519,-0.957503,-0.487687
460599253,-1.030762,-0.720753,-0.440377
460649834,-1.084810,-0.640131,-0.540349
460700418,-0.853312,-0.778313,-0.697943
460751004,-0.448475,-0.996128,-0.725607
460801590,-0.062010,-1.012846,-0.745178
460852174,-0.036166,-1.074500,-0.585779
460902763,-0.210366,-1.066849,-0.635419
460953324,-0.164248,-1.048563,-0.645825
461003899,-0.183664,-1.120451,-0.555481
461054472,-0.229391,-1.066163,-0.576056
461105047,-0.404544,-1.039000,-0.536520
461155626,-0.726960,-0.893449,-0.478234
461206203,-1.068405,-0.674202,-0.361659
461256776,-1.150314,-0.556733,-0.432172
461307357,-0.992113,-0.613287,-0.610356
461357936,-0.651137,-0.859447,-0.687115
461408511,-0.245665,-0.913475,-0.766029
461459087,-0.044783,-0.992979,-0.636164
461509672,-0.138413,-1.101019,-0.486249
461560254,-0.313146,-1.092691,-0.486287
461610835,-0.294402,-1.047334,-0.516542
461661420,-0.340587,-1.029004,-0.496881
461711998,-0.469724,-0.965108,-0.457838
461762578,-0.663953,-0.854883,-0.349819
461813149,-0.886149,-0.671158,-0.202888
461863718,-0.912848,-0.626679,-0.282687
461914289,-0.828952,-0.682613,-0.391297
461964863,-0.652286,-0.830533,-0.578201
462015440,-0.292382,-0.894468,-0.696766
462066014,-0.025821,-0.938759,-0.686350
462116590,-0.035897,-1.001705,-0.606486
462167165,-0.210678,-1.048150,-0.605767
462217741,-0.245921,-0.977153,-0.745506
462268319,-0.393636,-1.032010,-0.695467
462318904,-0.604813,-0.978579,-0.725750
462369490,-0.818701,-0.994846,-0.507177
462420079,-1.021544,-0.940306,-0.458145
462470662,-1.055876,-0.824639,-0.677449
462521245,-0.807444,-0.951680,-0.696107
462571838,-0.419762,-1.070558,-0.833873
462622392,-0.041485,-0.988024,-0.943621
462672963,0.150939,-1.004555,-0.874678
462723536,0.159201,-1.076453,-0.794171
462774104,0.065253,-1.184089,-0.614492
462824672,0.037522,-1.220600,-0.604085
462875246,0.011916,-1.122675,-0.783714
462925813,-0.190157,-1.059932,-0.804169
462976391,-0.531144,-0.996666,-0.735606
463026976,-0.918363,-0.841731,-0.637618
463077566,-1.009107,-0.734049,-0.748092
463128152,-0.824331,-0.770812,-0.827032
463178722,-0.539500,-1.016045,-0.814689
463229299,-0.180080,-1.033608,-0.884076
463279876,0.003434,-1.023060,-0.844424
463330460,-0.007653,-1.139563,-0.674485
463381049,-0.147367,-1.238574,-0.514768
463431645,-0.284775,-1.203298,-0.564571
463482232,-0.404223,-1.194827,-0.574468
463532823,-0.707803,-0.995014,-0.556829
463583420,-1.086824,-0.729089,-0.361015
463634012,-1.243376,-0.354717,-0.325367
463684598,-1.196798,-0.309488,-0.375383
463735179,-1.085173,-0.475194,-0.502720
463785762,-0.835527,-0.722615,-0.639094
463836341,-0.485497,-0.867988,-0.697190
463886925,-0.228115,-0.912343,-0.686866
463937506,-0.183668,-0.974165,-0.547198
463988088,-0.231161,-0.999887,-0.407986
464038665,-0.231396,-1.027004,-0.387794
464089241,-0.147525,-0.982318,-0.487583
464139826,-0.201605,-0.929113,-0.587366
464190410,-0.421518,-0.830605,-0.657909
464240988,-0.808669,-0.575192,-0.561039
464291560,-0.946376,-0.347595,-0.573511
464342137,-0.843819,-0.348881,-0.702428
464392717,-0.715535,-0.558022,-0.670658
464443301,-0.493320,-0.568035,-0.809557
464493884,-0.189170,-0.558310,-0.869294
464544467,-0.015009,-0.620764,-0.818941
464595047,-0.007145,-0.701317,-0.699006
464645623,0.001399,-0.746170,-0.639173
464696204,0.047717,-0.728092,-0.669156
464746785,0.001368,-0.755261,-0.638804
464797369,-0.229202,-0.773781,-0.579010
464847953,-0.496960,-0.755387,-0.479911
464898540,-0.672544,-0.745975,-0.400587
464949127,-0.689653,-0.702079,-0.520485
464999716,-0.661748,-0.738845,-0.549572
465050297,-0.587580,-0.803284,-0.608531
465100872,-0.476149,-0.804113,-0.707699
465151446,-0.382870,-0.768867,-0.827875
465202026,-0.374024,-0.814085,-0.797490
465252608,-0.429030,-0.860224,-0.816383
465303184,-0.493186,-0.842555,-0.836637
465353769,-0.538957,-0.843004,-0.856233
465404350,-0.594244,-0.843106,-0.846173
465454934,-0.668243,-0.833786,-0.806672
465505520,-0.714418,-0.806303,-0.786992
465556105,-0.797510,-0.788039,-0.757607
465606685,-0.871064,-0.751835,-0.757973
465707844,-0.944994,-0.696758,-0.718431
465758428,-0.991419,-0.659941,-0.679512
465809012,-1.000381,-0.641970,-0.699454
465859595,-1.018975,-0.623512,-0.679797
465910170,-1.037564,-0.595918,-0.660237
465960748,-1.046628,-0.605194,-0.669776
466011330,-1.056296,-0.623004,-0.630169
466061914,-1.056307,-0.623017,-0.630258
466112500,-1.065797,-0.668265,-0.599569
466163094,-1.057068,-0.695115,-0.559769
466213680,-1.066822,-0.749278,-0.509506
466264280,-1.048684,-0.794615,-0.489257
466314838,-1.048915,-0.821751,-0.469124
466365414,-1.086152,-0.857921,-0.429040
466415986,-1.095593,-0.885117,-0.408964
466466560,-1.132912,-0.902863,-0.359095
466517126,-1.161054,-0.911467,-0.309433
466567701,-1.216531,-0.874772,-0.280039
466618273,-1.253519,-0.856399,-0.260378
466668853,-1.318157,-0.792324,-0.231238
466719440,-1.392108,-0.719037,-0.192311
466770022,-1.429084,-0.655000,-0.173168
466820601,-1.465822,-0.582084,-0.173935
466871176,-1.493230,-0.527511,-0.184374
466921743,-1.511793,-0.463377,-0.165212
