Timestamp (us),X (a.u.),Y (a.u.),Z (a.u.)
1412028514,-0.511590,0.241928,-1.005865
1412078366,-0.511473,0.251015,-0.995901
1412128239,-0.502453,0.242011,-0.985877
1412178102,-0.511434,0.251071,-0.985714
1412227968,-0.502378,0.250968,-0.995842
1412277840,-0.502390,0.250973,-0.995991
1412327712,-0.502494,0.241881,-1.005805
1412377576,-0.475182,0.250718,-1.016188
1412427447,-0.475372,0.232676,-1.016190
1412477316,-0.447935,0.259437,-1.046803
1412527190,-0.438979,0.250314,-1.057015
1412577066,-0.466226,0.241596,-1.026394
1412626938,-0.447857,0.268467,-1.047035
1412676815,-0.429857,0.250330,-1.046908
1412726692,-0.402149,0.295320,-1.047397
1412776572,-0.374990,0.295015,-1.077941
1412826454,-0.374785,0.313126,-1.068052
1412876329,-0.374822,0.313070,-1.078252
1412926207,-0.347544,0.313008,-1.068482
1412976072,-0.356243,0.349209,-1.058651
1413025931,-0.374178,0.367466,-1.038539
1413075796,-0.437977,0.340808,-1.017602
1413125676,-0.456350,0.322780,-1.027313
1413175550,-0.456475,0.304856,-1.007082
1413225428,-0.474675,0.313645,-1.057022
1413275293,-0.429989,0.241175,-1.066752
1413325168,-0.448221,0.241139,-1.086810
1413375043,-0.420702,0.268088,-1.087305
1413424915,-0.383332,0.367313,-1.068412
1413474791,-0.310709,0.375693,-1.119404
1413524658,-0.237353,0.447493,-1.130763
1413574530,-0.237497,0.438344,-1.150767
1413624399,-0.210164,0.447253,-1.151283
1413674268,-0.201031,0.456092,-1.171182
1413724134,-0.219232,0.456123,-1.181215
1413774012,-0.264774,0.438407,-1.160536
1413823887,-0.337503,0.429777,-1.149701
1413873758,-0.236450,0.546573,-1.161706
1413923625,-0.328098,0.456933,-1.129937
1413973500,-0.364548,0.448013,-1.139541
1414023363,-0.428805,0.376242,-1.118399
1414073235,-0.437233,0.430670,-1.078435
1414123101,-0.446060,0.457794,-1.078731
1414172970,-0.464230,0.457796,-1.088267
1414222850,-0.346140,0.474940,-1.149986
1414272721,-0.300446,0.501795,-1.150490
1414322602,-0.245507,0.546677,-1.151576
1414372478,-0.290665,0.565120,-1.121158
1414422359,-0.345210,0.556481,-1.100628
1414472231,-0.344593,0.610815,-1.070955
1414522109,-0.418313,0.502833,-1.069016
1414571979,-0.381428,0.565734,-1.090302
1414621857,-0.408867,0.538972,-1.059684
1414671761,-0.472899,0.494141,-1.058679
1414771505,-0.391414,0.484297,-1.129532
1414821384,-0.391260,0.493435,-1.109363
1414871261,-0.418089,0.538618,-1.119505
1414921134,-0.345209,0.565233,-1.140526
1414971002,-0.318049,0.556085,-1.140722
1415020875,-0.318049,0.564934,-1.171084
1415070757,-0.372870,0.529137,-1.160032
1415120635,-0.491614,0.457609,-1.138186
1415170511,-0.464123,0.493425,-1.169391
1415220381,-0.436786,0.502242,-1.179427
1415270252,-0.473209,0.493384,-1.178992
1415320126,-0.528205,0.439621,-1.158096
1415370001,-0.564960,0.394728,-1.147320
1415419874,-0.537445,0.430523,-1.178187
1415469740,-0.610428,0.386044,-1.126881
1415569484,-0.609746,0.449259,-1.117031
1415619359,-0.682842,0.395695,-1.075703
1415669236,-0.755563,0.378220,-1.034520
1415719112,-0.828453,0.333999,-0.943226
1415768993,-0.846593,0.334145,-0.933007
1415818874,-0.873298,0.370802,-0.862762
1415868754,-0.937484,0.299217,-0.811458
1415918638,-0.937552,0.290186,-0.811260
1415968523,-0.918831,0.335473,-0.771658
1416018405,-0.909652,0.344526,-0.761900
1416068275,-0.927735,0.327113,-0.671100
1416118154,-0.945863,0.318413,-0.630591
1416168036,-0.945818,0.309700,-0.580327
1416217916,-0.945225,0.355273,-0.510597
1416267793,-0.927243,0.337071,-0.520586
1416317670,-0.926921,0.364268,-0.500733
1416367542,-0.908605,0.373404,-0.470945
1416417414,-0.908641,0.364504,-0.450788
1416467285,-0.881341,0.373200,-0.481104
1416517167,-0.863310,0.364039,-0.491324
1416567047,-0.836400,0.345493,-0.551680
1416616927,-0.818529,0.318274,-0.561675
1416666801,-0.800943,0.272759,-0.611676
1416716672,-0.765414,0.200144,-0.651494
1416766543,-0.766273,0.127709,-0.691258
1416816428,-0.739800,0.046427,-0.680812
1416866306,-0.776885,-0.052178,-0.599209
1416916178,-0.758906,-0.061472,-0.629529
1416966054,-0.768159,-0.079418,-0.619345
1417015935,-0.768106,-0.070517,-0.639405
1417065810,-0.731629,-0.052759,-0.659895
1417115682,-0.768535,-0.142089,-0.538314
1417165561,-0.795347,-0.105680,-0.508225
1417215445,-0.785539,-0.024690,-0.539108
1417265334,-0.794407,-0.006602,-0.538999
1417315207,-0.776143,0.002402,-0.529300
1417365105,-0.785163,0.002632,-0.499176
1417414968,-0.794372,-0.015251,-0.478857
1417464844,-0.794631,-0.042261,-0.468668
1417514725,-0.776205,-0.015334,-0.479037
1417564603,-0.776026,0.002714,-0.479187
1417614475,-0.748660,0.011676,-0.469493
1417664357,-0.757779,0.002818,-0.449250
1417714221,-0.784957,-0.023384,-0.328229
1417764098,-0.784555,0.012902,-0.298516
1417813975,-0.775051,0.075599,-0.369476
1417863848,-0.756705,0.093565,-0.369806
1417913717,-0.747622,0.084617,-0.349622
1417963588,-0.738664,0.093102,-0.430101
1418013453,-0.702395,0.092746,-0.460506
1418063326,-0.693362,0.101486,-0.500980
1418113204,-0.675034,0.128227,-0.541548
1418163079,-0.675009,0.137061,-0.571656
1418212954,-0.675152,0.127913,-0.591660
1418262834,-0.693507,0.101110,-0.561137
1418312706,-0.721419,0.029165,-0.540188
1418362586,-0.757306,0.056775,-0.479741
1418412466,-0.756644,0.128843,-0.500417
1418462337,-0.775132,0.101730,-0.520087
1418512215,-0.784502,0.083474,-0.559998
1418562093,-0.784520,0.092249,-0.600225
1418611972,-0.748061,0.127685,-0.681292
1418661844,-0.784448,0.118820,-0.680648
1418711724,-0.766389,0.127395,-0.741348
1418761603,-0.729680,0.181001,-0.802393
1418811481,-0.757047,0.172039,-0.812087
1418861365,-0.756957,0.181063,-0.812162
1418911247,-0.775044,0.190104,-0.821972
1418961129,-0.774972,0.199133,-0.822171
1419011004,-0.820685,0.163434,-0.791424
1419060884,-0.829598,0.181458,-0.801402
1419110761,-0.838644,0.172720,-0.760964
1419210515,-0.938890,0.110693,-0.649032
1419260395,-0.957099,0.110782,-0.649053
1419310273,-0.975432,0.083976,-0.618430
1419360154,-0.993791,0.057109,-0.597853
1419410040,-0.984735,0.074747,-0.658523
1419459921,-0.975491,0.083787,-0.648447
1419509800,-1.012235,0.047732,-0.667863
1419559679,-0.994082,0.038748,-0.647792
1419609566,-1.040071,-0.032800,-0.576668
1419659441,-1.040075,-0.032862,-0.586615
1419709324,-1.058241,-0.032779,-0.586435
1419759200,-1.049378,-0.068544,-0.526081
1419809080,-1.076327,-0.058959,-0.455538
1419858958,-1.094708,-0.085824,-0.435057
1419908830,-1.094509,-0.050039,-0.485624
1419958696,-1.094562,-0.050163,-0.505702
1420008562,-1.103551,-0.040972,-0.485763
1420058455,-1.103339,-0.014086,-0.516033
1420108306,-1.103047,0.012986,-0.516176
1420158181,-1.112157,0.012966,-0.526125
1420208053,-1.148472,0.004357,-0.485533
1420257928,-1.112041,0.022052,-0.516161
1420307807,-1.157554,0.004462,-0.475480
1420357688,-1.166617,-0.004146,-0.415205
1420407557,-1.184743,-0.012966,-0.394669
1420457428,-1.202740,-0.003671,-0.364446
1420507312,-1.212011,-0.030453,-0.324029
1420557189,-1.230178,-0.030370,-0.323849
1420607062,-1.230339,-0.057257,-0.293452
1420656940,-1.230321,-0.066094,-0.263213
1420706815,-1.248443,-0.074662,-0.202768
1420756692,-1.239404,-0.092503,-0.162520
1420806566,-1.230446,-0.110468,-0.142384
1420856443,-1.221371,-0.119286,-0.102271
1420906323,-1.221496,-0.137149,-0.072022
1420956186,-1.194084,-0.136900,-0.012048
1421006058,-1.185188,-0.163828,0.018209
1421055928,-1.158062,-0.181878,0.038170
1421105806,-1.149106,-0.199903,0.048272
1421155680,-1.121862,-0.208806,0.088238
