Timestamp (us),X (a.u.),Y (a.u.),Z (a.u.)
10051736697,-0.018194,-0.610586,-1.096867
10051787098,-0.018405,-0.610640,-1.076839
10051837492,0.009005,-0.620057,-1.076805
10051887887,-0.000170,-0.610809,-1.076944
10051938283,-0.018238,-0.619780,-1.086799
10051988687,0.008980,-0.601692,-1.086644
10052039084,-0.009498,-0.610778,-1.056872
10052089480,-0.000178,-0.610803,-1.076665
10052139883,-0.018299,-0.610613,-1.086852
10052190282,-0.009288,-0.610724,-1.076892
10052240680,-0.009356,-0.601553,-1.076666
10052291077,-0.009291,-0.610722,-1.076752
10052341473,-0.009448,-0.601590,-1.067209
10052391872,0.008990,-0.620045,-1.076247
10052442281,-0.000341,-0.601666,-1.066846
10052543083,-0.000174,-0.610806,-1.076805
10052593493,-0.000178,-0.610803,-1.076665
10052643901,-0.009427,-0.619953,-1.057229
10052694304,-0.009444,-0.601592,-1.067347
10052744704,-0.018510,-0.610667,-1.066829
10052795105,-0.009189,-0.610692,-1.086624
10052845500,-0.000113,-0.619972,-1.076752
10052895901,-0.009760,-0.601673,-1.037318
10052946296,-0.027416,-0.610529,-1.086797
10052996700,-0.009434,-0.619947,-1.056955
10053047104,-0.027620,-0.610588,-1.067054
10053097514,-0.009196,-0.610687,-1.086342
10053147925,-0.018445,-0.619836,-1.066914
10053198329,-0.009196,-0.610687,-1.086342
10053248723,-0.018343,-0.619806,-1.076786
10053299123,-0.027579,-0.601392,-1.076979
10053349518,-0.018466,-0.601474,-1.076892
10053399923,-0.018347,-0.619803,-1.076647
10053450322,-0.009369,-0.629116,-1.057039
10053500724,-0.000218,-0.619999,-1.066741
10053551129,-0.000014,-0.619940,-1.086484
10053601535,-0.000279,-0.610833,-1.066794
10053651934,-0.009440,-0.619941,-1.056682
10053702339,0.009042,-0.656779,-1.056707
10053752735,-0.008845,-0.693244,-1.066266
10053803142,-0.008944,-0.739197,-1.026652
10053853543,-0.008798,-0.821819,-0.986816
10053903938,-0.008532,-0.922768,-0.946741
10053954332,-0.035873,-1.014365,-0.887232
10054004737,-0.036100,-1.133811,-0.787712
10054055132,-0.063948,-1.225569,-0.678937
10054105532,-0.082973,-1.335813,-0.530249
10054155927,-0.129701,-1.436818,-0.352550
10054256730,-0.233873,-1.492179,0.061565
10054307133,-0.327878,-1.473768,0.327079
10054357534,-0.385741,-1.363990,0.562849
10054407944,-0.443842,-1.217533,0.798287
10054508750,-0.577416,-0.768124,1.081205
10054559153,-0.652810,-0.492653,1.138676
10054609560,-0.709189,-0.244696,1.145759
10054659958,-0.746269,-0.014939,1.055399
10054710367,-0.792028,0.169083,0.955032
10054760768,-0.828040,0.334831,0.805531
10054811171,-0.844991,0.445611,0.607504
10054861575,-0.852210,0.538150,0.360241
10054911989,-0.859079,0.584805,0.112956
10054962387,-0.883013,0.540044,-0.183319
10055012786,-0.870397,0.430745,-0.449124
10055063186,-0.839576,0.247810,-0.664906
10055113592,-0.818350,0.028102,-0.811521
10055163998,-0.779091,-0.237752,-0.908230
10055214405,-0.713452,-0.531664,-0.896174
10055264814,-0.648626,-0.825824,-0.805141
10055315230,-0.575986,-1.074505,-0.615303
10055365632,-0.503943,-1.268278,-0.406292
10055416031,-0.451354,-1.370426,-0.138705
10055466436,-0.371360,-1.417635,0.089381
10055516841,-0.318866,-1.427959,0.307157
10055567243,-0.266102,-1.401451,0.475341
10055617649,-0.222702,-1.338231,0.643423
10055668052,-0.152112,-1.266035,0.821068
10055718465,-0.118310,-1.129371,0.988420
10055768875,-0.066282,-0.992881,1.156115
10055819281,-0.050563,-0.800885,1.273082
10055869688,-0.025263,-0.618053,1.351423
10055920083,-0.017945,-0.425798,1.400152
10055970478,-0.019618,-0.205865,1.418626
10056020881,-0.030099,0.014221,1.406988
10056121700,-0.122028,0.409704,1.226201
10056172102,-0.185332,0.566539,1.076658
10056222507,-0.229580,0.705128,0.858569
10056272913,-0.301000,0.788868,0.659961
10056323323,-0.407956,0.827280,0.402040
10056373731,-0.469174,0.810204,0.164579
10056424142,-0.530378,0.774789,-0.062838
10056474548,-0.590684,0.666163,-0.329314
10056524956,-0.660520,0.511600,-0.526580
10056575369,-0.721357,0.329347,-0.693951
10056625765,-0.755232,0.110018,-0.801719
10056676173,-0.798932,-0.091096,-0.850249
10056726569,-0.834076,-0.237350,-0.879143
10056776971,-0.851784,-0.347235,-0.859051
10056827378,-0.860645,-0.402179,-0.849057
10056877786,-0.860449,-0.429678,-0.848791
10056928191,-0.869677,-0.429626,-0.839113
10056978599,-0.878859,-0.402017,-0.849124
10057028992,-0.860790,-0.374685,-0.848895
10057079392,-0.879532,-0.301189,-0.849706
10057129788,-0.889503,-0.218701,-0.820657
10057180193,-0.871888,-0.127203,-0.821012
10057230591,-0.882300,-0.026463,-0.762552
10057280985,-0.893229,0.129177,-0.684313
10057331375,-0.895303,0.248031,-0.566856
10057381782,-0.888433,0.375820,-0.429140
10057432185,-0.881605,0.466978,-0.271755
10057482578,-0.875272,0.548727,-0.054937
10057532984,-0.877935,0.584646,0.181704
10057583386,-0.889326,0.556540,0.418705
10057633790,-0.891182,0.482533,0.646150
10057684195,-0.910024,0.317190,0.814603
10057734601,-0.901166,0.151759,0.944225
10057785001,-0.900526,-0.059322,1.023958
10057835404,-0.908590,-0.251775,1.045029
10057885800,-0.906855,-0.434950,0.996734
10057936206,-0.914194,-0.608848,0.938430
10057986612,-0.903444,-0.764583,0.880325
10058037017,-0.909967,-0.938248,0.743037
10058087415,-0.907463,-1.066092,0.585736
10058137819,-0.913700,-1.175385,0.379004
10058188216,-0.910987,-1.238929,0.152478
10058238613,-0.908092,-1.265601,-0.104122
10058289013,-0.914595,-1.228028,-0.380795
10058339414,-0.903729,-1.108213,-0.628159
10058389818,-0.912368,-0.905954,-0.807180
10058440215,-0.912851,-0.630575,-0.936863
10058490615,-0.924195,-0.309717,-0.928815
10058541012,-0.945929,0.047588,-0.822506
10058591414,-0.941114,0.321786,-0.587250
10058641814,-0.927328,0.540769,-0.302171
10058692219,-0.940515,0.659088,0.012925
10058742630,-0.953116,0.676528,0.338504
10058793045,-0.945821,0.584056,0.575954
10058843462,-0.947061,0.445961,0.784148
10058893868,-0.929290,0.243583,0.962890
10058944278,-0.919556,0.023299,1.043511
10058994687,-0.917915,-0.215036,1.044419
10059045102,-0.906815,-0.471673,1.016687
10059095516,-0.894748,-0.728047,0.899674
10059145927,-0.891169,-0.947430,0.693904
10059196333,-0.896549,-1.139132,0.458003
10059246733,-0.892289,-1.248065,0.122885
10059297141,-0.879734,-1.256400,-0.212548
10059347544,-0.895581,-1.136143,-0.519461
10059397942,-0.858224,-0.915778,-0.747282
10059448336,-0.876948,-0.640244,-0.877249
10059498730,-0.888632,-0.291906,-0.859932
10059549146,-0.901043,0.028603,-0.742933
10059599558,-0.887344,0.293446,-0.477900
10059649956,-0.882413,0.485070,-0.202715
10059700356,-0.877078,0.548159,0.122700
10059750761,-0.861680,0.510465,0.419229
10059801169,-0.863489,0.381387,0.676708
10059851573,-0.873152,0.188445,0.855426
10059901974,-0.872412,-0.068526,0.955196
10059952376,-0.852370,-0.325302,0.946984
10060002786,-0.868301,-0.581610,0.889352
10060053186,-0.865271,-0.810335,0.742844
10060103588,-0.862039,-0.983887,0.546212
10060153994,-0.859448,-1.111712,0.379154
10060204394,-0.884070,-1.184161,0.162198
10060254792,-0.864144,-1.211395,0.014465
10060305188,-0.862947,-1.220222,-0.094085
10060355586,-0.871565,-1.220007,-0.143541
10060405989,-0.862111,-1.238348,-0.163083
10060456387,-0.835070,-1.266209,-0.113294
10060506783,-0.781088,-1.303660,-0.023726
10060557184,-0.727415,-1.350348,0.105369
10060607591,-0.655609,-1.369687,0.224615
10060657998,-0.583938,-1.379837,0.353502
10060708407,-0.502973,-1.380937,0.453236
10060758822,-0.403534,-1.382053,0.533082
10060809234,-0.322451,-1.364692,0.612721
10060859635,-0.259130,-1.356233,0.652857
10060910045,-0.186852,-1.338684,0.702698
10060960453,-0.132233,-1.330007,0.703165
10061010859,-0.104323,-1.339305,0.654326
10061061265,-0.094046,-1.375734,0.565502
10061111665,-0.074759,-1.412343,0.487011
10061162063,-0.063708,-1.457765,0.329379
10061212478,-0.061183,-1.484525,0.102477
10061262887,-0.040571,-1.474835,-0.134173
10061313292,-0.038405,-1.400797,-0.391258
10061363695,-0.036573,-1.262493,-0.658473
10061414100,-0.008348,-1.042109,-0.886813
10061464500,-0.018469,-0.693309,-1.017000
10061565303,-0.034600,0.112920,-0.863814
10061615709,-0.021295,0.451102,-0.608817
10061716517,-0.029918,0.779236,0.010961
10061766916,-0.052021,0.824149,0.355823
10061817308,-0.028309,0.786144,0.731330
10061867710,-0.039603,0.592742,1.067859
10061918107,-0.039907,0.225350,1.336991
10061968507,-0.037315,-0.223917,1.379071
10062018908,-0.023040,-0.736804,1.214121
10062069315,-0.017044,-1.129961,0.890536
10062119719,-0.038591,-1.385201,0.497069
10062170121,-0.033473,-1.493906,0.073253
10062220523,-0.020364,-1.465281,-0.331454
10062270933,-0.008394,-1.280879,-0.727283
10062321342,-0.016513,-0.940698,-1.045048
10062371749,-0.019248,-0.408836,-1.127070
10062422156,-0.025143,0.168030,-0.933020
10062472557,-0.033571,0.679836,-0.452290
10062522963,-0.022865,0.934681,0.108840
10062573377,-0.046638,0.969948,0.621553
10062623781,-0.050062,0.794448,1.066450
10062674177,-0.051285,0.472745,1.394707
10062724580,-0.048855,-0.059239,1.505929
10062774984,-0.051870,-0.681901,1.322697
10062825385,-0.024770,-1.230498,0.821947
10062875786,-0.025152,-1.512625,0.162331
10062926191,-0.037204,-1.473900,-0.459874
10062976588,-0.025605,-1.188569,-0.885800
10063026984,-0.017320,-0.757277,-1.086005
10063077385,-0.030115,-0.253139,-1.058972
10063127789,-0.027099,0.277681,-0.815327
10063178190,-0.026678,0.706683,-0.255058
10063228591,-0.007325,0.878711,0.405605
10063278991,-0.021376,0.684434,1.008447
10063329391,-0.012383,0.197583,1.337019
10063379798,0.000954,-0.389031,1.311076
10063430200,0.016574,-0.919883,1.027834
10063480604,-0.031068,-1.284737,0.585499
10063531010,0.002646,-1.429986,0.063307
10063581420,-0.001253,-1.336669,-0.499977
10063631825,-0.008405,-0.959417,-0.936055
10063682232,-0.030048,-0.354138,-0.999432
10063732633,-0.037825,0.304834,-0.677302
10063783039,-0.047140,0.752227,-0.068002
10063833443,-0.072672,0.851281,0.573002
10063883851,-0.057931,0.638833,1.047997
10063934256,-0.076523,0.234801,1.346267
10063984662,-0.054888,-0.306227,1.368903
10064035060,-0.029645,-0.882929,1.066666
10064085462,-0.038286,-1.339176,0.437512
10064135865,-0.039486,-1.437845,-0.262730
10064186269,-0.026347,-1.124458,-0.856236
10064236672,-0.037640,-0.491372,-1.057546
10064287074,-0.044525,0.158708,-0.815018
10064337473,-0.061780,0.643176,-0.343956
10064387870,-0.051367,0.879487,0.256934
10064438270,-0.075343,0.822909,0.849355
10064488671,-0.059603,0.445488,1.335353
10064539071,-0.046897,-0.214794,1.418006
10064589471,-0.038412,-0.919473,1.056766
10064639871,-0.054943,-1.421193,0.339067
10064690280,-0.064606,-1.464471,-0.460132
10064740687,-0.061668,-1.077938,-0.995471
10064791088,-0.054997,-0.481779,-1.147328
10064841492,-0.088582,0.132011,-0.943766
10064891896,-0.078888,0.643622,-0.452616
10064942306,-0.070002,0.925425,0.266318
10064992705,-0.058258,0.794864,0.978004
10065043127,-0.040620,0.271025,1.375612
10065093540,0.001587,-0.499055,1.321774
10065143949,0.003015,-1.175484,0.742713
10065194355,0.021733,-1.466673,0.004521
10065244753,0.018188,-1.336429,-0.618053
10065295163,0.019217,-0.922895,-0.985973
10065345568,0.006905,-0.354323,-1.048039
10065395974,-0.000356,0.258870,-0.745682
10065446384,-0.046458,0.724699,-0.117172
10065496793,-0.064068,0.850980,0.622164
10065547194,-0.077054,0.528512,1.206209
10065597597,-0.092545,-0.140941,1.377673
10065648023,-0.102654,-0.882314,1.075999
10065698413,-0.091986,-1.393488,0.378032
10065748828,-0.092557,-1.464403,-0.401186
10065799238,-0.071334,-1.087188,-0.936161
10065849647,-0.101594,-0.435747,-1.078206
10065900057,-0.100110,0.232359,-0.776080
10065950462,-0.091243,0.716236,-0.186659
10066000872,-0.108614,0.851635,0.522873
10066051279,-0.094525,0.629875,1.066969
10066101692,-0.094012,0.124940,1.346138
10066152096,-0.070768,-0.489055,1.261242
10066202513,-0.054130,-1.019580,0.879292
10066252929,-0.045913,-1.347814,0.299209
10066303340,-0.030175,-1.391895,-0.312158
10066353748,-0.000165,-1.088330,-0.767595
10066404153,0.007672,-0.620435,-0.948191
10066454552,-0.006165,-0.052331,-0.862383
10066504957,0.004714,0.450440,-0.480164
10066555365,0.006267,0.742076,0.060846
10066605773,-0.017789,0.758919,0.613162
10066656177,-0.011815,0.509958,1.078303
10066706589,-0.029141,0.069600,1.278372
10066757003,-0.033766,-0.480040,1.202506
10066807423,-0.072764,-0.973650,0.889116
10066857838,-0.119775,-1.310737,0.367489
10066908240,-0.149641,-1.363573,-0.234513
10066958643,-0.210050,-1.150820,-0.700145
10067009044,-0.265345,-0.691341,-0.940378
10067059448,-0.351743,-0.140863,-0.874907
10067109846,-0.386182,0.371610,-0.523000
10067160246,-0.457430,0.663873,0.007548
10067210649,-0.517558,0.653626,0.539953
10067261050,-0.564967,0.350428,0.916103
