Timestamp (us),X (a.u.),Y (a.u.),Z (a.u.)
910422788,-0.481678,-0.727192,-1.052041
910473347,-0.444861,-0.727037,-1.052200
910523914,-0.407810,-0.699725,-1.072613
910574473,-0.398719,-0.708690,-1.062538
910625036,-0.417027,-0.718054,-1.072415
910675594,-0.435430,-0.708996,-1.072507
910726161,-0.435329,-0.718276,-1.082390
910776726,-0.444741,-0.708902,-1.062523
910827285,-0.454046,-0.699680,-1.052784
910877842,-0.454172,-0.726959,-1.042363
910928401,-0.472587,-0.736187,-1.042260
910978964,-0.482232,-0.753971,-1.002139
911029528,-0.500661,-0.781519,-1.002120
911080093,-0.501567,-0.853577,-0.921473
911130660,-0.511336,-0.898619,-0.870819
911181227,-0.548491,-0.925772,-0.840335
911231792,-0.576328,-0.934808,-0.820504
911282350,-0.640728,-0.889389,-0.820970
911332913,-0.677079,-0.826119,-0.861685
911383474,-0.676962,-0.817095,-0.871642
911434037,-0.676952,-0.807935,-0.871617
911484597,-0.722508,-0.753834,-0.912104
911535156,-0.759390,-0.698994,-0.902571
911585718,-0.814584,-0.644406,-0.903264
911636278,-0.897819,-0.571123,-0.864342
911686838,-0.999659,-0.506757,-0.804985
911737397,-1.129462,-0.368816,-0.706299
911787957,-1.250355,-0.212327,-0.588531
911838517,-1.334446,-0.073778,-0.460002
911889067,-1.362086,-0.037339,-0.460581
911990200,-1.277935,-0.322312,-0.597334
912040757,-1.129247,-0.469825,-0.735467
912091312,-0.962141,-0.580688,-0.874082
912141871,-0.814144,-0.626665,-0.943377
912192430,-0.721702,-0.663371,-0.983072
912242985,-0.721695,-0.654228,-0.983170
912293539,-0.786895,-0.671872,-0.913216
912344098,-0.917267,-0.707103,-0.772816
912394655,-1.093693,-0.632709,-0.623759
912445209,-1.251102,-0.458343,-0.525704
912495763,-1.353197,-0.265592,-0.437991
912546319,-1.381490,-0.109342,-0.369902
912596879,-1.409403,0.055655,-0.331677
912647438,-1.372701,0.229820,-0.313630
912697997,-1.363568,0.229992,-0.303563
912748549,-1.363355,0.147303,-0.332765
912799103,-1.354644,0.129609,-0.292775
912849657,-1.372882,0.120237,-0.302479
912900215,-1.372912,0.101952,-0.302328
912950778,-1.363731,0.092852,-0.302278
913001340,-1.363685,0.056276,-0.301710
913051907,-1.363703,0.056277,-0.301755
913102472,-1.372872,0.001238,-0.311237
913153037,-1.363580,-0.053715,-0.320590
913203608,-1.363297,-0.136410,-0.349603
913254162,-1.353866,-0.200792,-0.379027
913304722,-1.325732,-0.274483,-0.428049
913355289,-1.288025,-0.339558,-0.517353
913405840,-1.241139,-0.422693,-0.596018
913456394,-1.148342,-0.514820,-0.675185
913506941,-1.046285,-0.606865,-0.753993
913557487,-0.944543,-0.671081,-0.803248
913608044,-0.851907,-0.726364,-0.862821
913658603,-0.759444,-0.763027,-0.902141
913709165,-0.648792,-0.781092,-0.922074
913759719,-0.593372,-0.817666,-0.941535
913810277,-0.547470,-0.835621,-0.931505
913860834,-0.510544,-0.835570,-0.941367
913911395,-0.501132,-0.844961,-0.961369
913961960,-0.473411,-0.844970,-0.971360
914012521,-0.454876,-0.817556,-0.981366
914063077,-0.417509,-0.799816,-1.031759
914113639,-0.380671,-0.772231,-1.032208
914164197,-0.353081,-0.799484,-1.031492
914214749,-0.316270,-0.808457,-1.031407
914265303,-0.307054,-0.799305,-1.031796
914315860,-0.343883,-0.808585,-1.031398
914366417,-0.445666,-0.808388,-0.981604
914416971,-0.547778,-0.816908,-0.901627
914467525,-0.668079,-0.816643,-0.841703
914518082,-0.770083,-0.816174,-0.771913
914568635,-0.798000,-0.806715,-0.741845
914619193,-0.844374,-0.843109,-0.711602
914669753,-0.816446,-0.852534,-0.741456
914720308,-0.742828,-0.879623,-0.741188
914770867,-0.706233,-0.906573,-0.720742
914821436,-0.705909,-0.888732,-0.751084
914872008,-0.668548,-0.870975,-0.801308
914922582,-0.649247,-0.826247,-0.881534
914973147,-0.584600,-0.817112,-0.901868
915023710,-0.575179,-0.817326,-0.921709
915074280,-0.547449,-0.808157,-0.931536
915124852,-0.538137,-0.808251,-0.941519
915175422,-0.537901,-0.771984,-0.962137
915225983,-0.555850,-0.726881,-1.002406
915276556,-0.574131,-0.699658,-1.012532
915327124,-0.592312,-0.672615,-1.033066
915377691,-0.592296,-0.645199,-1.033503
915428273,-0.601277,-0.645458,-1.052879
915478827,-0.619901,-0.636169,-1.033447
915529395,-0.591966,-0.636451,-1.063402
915579963,-0.591843,-0.609170,-1.073827
915630533,-0.563780,-0.582144,-1.113907
915681109,-0.535694,-0.518558,-1.154527
915731687,-0.461580,-0.445604,-1.195095
915782255,-0.414970,-0.372946,-1.246139
915832827,-0.433470,-0.345446,-1.236100
915883393,-0.525869,-0.391207,-1.206141
915933956,-0.618906,-0.436094,-1.115294
915984520,-0.730395,-0.526833,-1.024741
916035088,-0.758375,-0.599688,-0.993862
916085649,-0.767812,-0.626888,-0.973602
916136193,-0.749521,-0.626694,-0.963896
916186742,-0.758727,-0.644996,-0.963428
916237298,-0.776665,-0.581622,-1.004033
916287852,-0.795150,-0.535854,-0.994533
916338406,-0.831958,-0.499472,-0.995188
916388962,-0.859416,-0.435720,-1.005706
916439520,-0.859369,-0.399117,-1.005676
916490084,-0.886968,-0.344411,-1.006673
916540648,-0.905529,-0.261924,-0.987440
916591215,-0.924124,-0.206882,-0.968190
916641779,-0.970506,-0.115109,-0.929087
916692334,-1.016853,0.040663,-0.890801
916742895,-1.053944,0.114049,-0.861623
916793462,-1.063450,0.160135,-0.832278
916844025,-1.044975,0.224220,-0.832735
916894603,-1.026759,0.288588,-0.813689
916945207,-1.017542,0.306918,-0.813887
916995756,-1.017655,0.297911,-0.803806
917046331,-1.017855,0.334763,-0.784339
917096897,-0.990337,0.380757,-0.775067
917147467,-0.990339,0.362464,-0.774764
917198038,-0.999631,0.362547,-0.764561
917248601,-0.990634,0.372006,-0.744695
917299164,-0.999609,0.380828,-0.764650
917349725,-0.990864,0.463829,-0.715421
917400288,-0.953836,0.500323,-0.736090
917450850,-0.944028,0.426392,-0.795102
917501404,-0.944169,0.389960,-0.784839
917551964,-0.962551,0.417300,-0.785017
917602525,-0.944368,0.399370,-0.764864
917653086,-0.935059,0.408426,-0.775054
917703679,-0.944230,0.417508,-0.774825
917754201,-0.935341,0.427103,-0.744987
917804761,-0.953763,0.436174,-0.745287
917855322,-0.972373,0.427205,-0.725016
917905880,-0.981585,0.445463,-0.725411
917956442,-0.990814,0.408847,-0.725017
918006998,-1.000041,0.390523,-0.724921
918057555,-0.990523,0.362720,-0.754476
918108117,-1.008642,0.316509,-0.783928
918158679,-1.008559,0.279799,-0.793520
918209237,-0.989752,0.233621,-0.832967
918259796,-0.961539,0.168926,-0.892186
918310349,-0.924118,0.095131,-0.951178
918360908,-0.877510,0.021378,-1.010437
918411470,-0.840616,-0.015164,-1.020183
918462026,-0.831070,-0.015524,-1.049699
918512584,-0.803380,-0.042968,-1.059689
918563142,-0.831013,-0.070526,-1.059388
918613706,-0.849555,-0.097909,-1.049252
918664271,-0.821820,-0.088770,-1.059196
918714834,-0.803203,-0.098101,-1.079068
918765395,-0.775488,-0.107254,-1.088962
918815965,-0.812521,-0.116290,-1.068740
918866513,-0.868069,-0.116137,-1.038779
918917069,-0.877192,-0.143750,-1.048610
918967635,-0.877307,-0.143618,-1.038772
919018202,-0.877292,-0.143609,-1.038483
919068765,-0.905012,-0.143600,-1.028493
919119330,-0.932630,-0.162009,-1.028146
919169881,-0.960809,-0.179752,-0.978317
919220436,-0.988435,-0.198167,-0.978113
919271000,-0.979025,-0.225821,-0.997649
919321565,-0.905232,-0.298907,-1.016996
919372129,-0.877372,-0.262472,-1.037215
919422694,-0.904993,-0.262606,-1.037350
919473240,-0.923384,-0.235261,-1.037637
919574344,-0.895653,-0.244400,-1.047239
919624899,-0.932584,-0.253577,-1.037150
919675457,-0.960619,-0.216599,-0.997891
919726016,-0.997522,-0.198340,-0.987954
919776568,-1.006599,-0.152807,-0.998559
919827124,-1.053151,-0.124912,-0.949058
919877681,-1.071632,-0.106566,-0.939002
919928232,-1.080931,-0.088185,-0.929213
919978784,-1.108759,-0.088040,-0.909242
920029336,-1.118273,-0.087670,-0.879174
920079890,-1.137186,-0.105514,-0.839642
920130443,-1.174714,-0.123002,-0.769100
920181003,-1.212199,-0.158928,-0.708814
920231559,-1.240382,-0.185808,-0.658701
920282116,-1.249694,-0.231421,-0.648045
920332675,-1.268767,-0.239836,-0.588149
920383250,-1.287544,-0.285235,-0.557793
920433796,-1.278681,-0.339637,-0.527189
920484360,-1.241732,-0.440325,-0.546168
920534923,-1.214495,-0.522080,-0.515353
920585477,-1.205564,-0.567505,-0.495047
920636026,-1.205842,-0.567061,-0.464891
920686576,-1.215267,-0.575974,-0.444829
920737125,-1.215499,-0.603131,-0.424575
920787676,-1.206307,-0.621375,-0.424383
920838230,-1.224599,-0.585036,-0.434811
920888779,-1.233568,-0.530501,-0.455423
920939327,-1.261347,-0.457207,-0.436227
920989873,-1.297739,-0.348047,-0.467201
921040428,-1.334769,-0.210654,-0.438646
921090976,-1.381430,-0.045337,-0.370531
921141529,-1.409700,0.120067,-0.302466
921192081,-1.391930,0.313121,-0.234691
921242632,-1.345832,0.505456,-0.226672
921293177,-1.281697,0.643352,-0.198341
921343717,-1.272530,0.698368,-0.188889
921394263,-1.291170,0.698568,-0.168948
921444804,-1.282309,0.689889,-0.138929
921495348,-1.310045,0.644168,-0.128428
921545912,-1.291909,0.690367,-0.098959
921596438,-1.264495,0.736497,-0.079509
921646979,-1.264758,0.736810,-0.059577
921697517,-1.273876,0.754947,-0.069780
921748057,-1.237144,0.801023,-0.050245
921798594,-1.190971,0.865102,-0.060924
921849136,-1.171938,0.900992,-0.121261
921899678,-1.180886,0.900627,-0.141163
921950222,-1.190432,0.891867,-0.111138
922000765,-1.181358,0.901222,-0.101289
922051310,-1.171877,0.928372,-0.121497
922101858,-1.145352,0.966490,-0.022106
922152406,-1.153763,0.947135,-0.091741
922202945,-1.180766,0.918777,-0.151338
922253487,-1.199952,0.901377,-0.081286
922304035,-1.218698,0.901717,-0.051343
922354575,-1.236978,0.864874,-0.060897
922405115,-1.265038,0.837862,-0.020678
922455663,-1.302272,0.746697,0.010245
922506212,-1.347999,0.682059,-0.018998
922556760,-1.402865,0.580682,-0.057829
922607309,-1.439499,0.433826,-0.086228
922657856,-1.475641,0.295542,-0.154612
922708406,-1.474650,0.175313,-0.253164
922758970,-1.455287,0.027739,-0.351482
922809533,-1.435917,-0.110697,-0.449923
922860084,-1.398474,-0.193630,-0.508821
922910643,-1.333571,-0.267167,-0.558052
922961181,-1.305323,-0.304426,-0.617484
923011733,-1.268216,-0.332102,-0.647241
923062293,-1.240073,-0.341800,-0.697070
923112857,-1.221442,-0.332844,-0.717140
923163422,-1.184008,-0.333508,-0.777272
923213977,-1.137729,-0.333545,-0.796924
923264539,-1.165692,-0.314998,-0.767487
923315105,-1.222376,-0.285899,-0.627778
923365666,-1.325246,-0.165314,-0.469210
923416229,-1.381912,-0.072225,-0.330418
923466793,-1.410089,0.047330,-0.271784
923517356,-1.401603,0.121476,-0.202725
923567918,-1.401698,0.222204,-0.193903
923618471,-1.411685,0.204831,-0.123813
923669028,-1.411880,0.177665,-0.103508
923719582,-1.420882,0.113212,-0.132867
923770135,-1.420206,-0.033913,-0.191047
923820692,-1.400925,-0.144780,-0.279763
923871251,-1.354158,-0.264537,-0.358483
923921809,-1.325921,-0.347508,-0.417409
923972367,-1.297683,-0.375630,-0.477026
924022923,-1.251249,-0.403393,-0.516683
924073480,-1.232616,-0.412716,-0.536481
924124032,-1.204767,-0.413051,-0.566922
924174586,-1.186056,-0.431463,-0.586128
924225148,-1.167558,-0.458944,-0.595823
924275705,-1.167569,-0.495506,-0.595348
924326264,-1.176706,-0.513993,-0.605301
924376828,-1.140038,-0.559416,-0.594929
924427392,-1.121653,-0.595905,-0.594545
924477958,-1.141044,-0.658741,-0.503860
924528518,-1.179379,-0.684433,-0.363825
924579080,-1.189873,-0.710255,-0.243723
924629640,-1.199545,-0.746339,-0.203445
924680199,-1.190486,-0.782749,-0.193108
924730754,-1.171924,-0.810414,-0.212886
924781306,-1.162475,-0.828884,-0.232557
924831861,-1.125372,-0.883984,-0.261931
924882418,-1.069728,-0.920830,-0.301442
924932976,-1.033077,-0.975421,-0.290977
924983539,-0.996597,-1.002272,-0.260746
925034097,-1.005346,-0.993678,-0.300683
925084658,-1.005361,-0.984573,-0.300872
925135221,-1.023985,-0.984385,-0.280899
925185791,-1.051581,-0.957082,-0.281182
925236364,-1.079505,-0.956782,-0.251184
925286929,-1.098009,-0.920175,-0.241623
925337491,-1.125358,-0.883966,-0.261890
925388042,-1.143983,-0.865509,-0.242156
925438595,-1.171333,-0.792762,-0.262891
925489156,-1.226102,-0.747845,-0.303288
925539715,-1.234838,-0.666155,-0.344142
925590274,-1.261865,-0.612091,-0.394577
925640828,-1.271013,-0.575536,-0.394849
925691381,-1.280118,-0.539164,-0.405334
925741938,-1.307785,-0.484285,-0.395870
925792493,-1.335314,-0.383828,-0.396875
925843048,-1.363311,-0.264562,-0.358322
925893601,-1.409979,-0.135808,-0.289755
925944162,-1.410762,0.002431,-0.211404
925994716,-1.411716,0.150087,-0.113126
926045269,-1.394084,0.297561,-0.034855
926095826,-1.384830,0.370751,-0.035638
926146388,-1.366528,0.370973,-0.025663
926196954,-1.393870,0.324724,-0.055123
926247509,-1.393239,0.250748,-0.114205
926298068,-1.383304,0.249841,-0.184101
926348622,-1.383518,0.250114,-0.164137
926399182,-1.383102,0.231281,-0.203870
926449739,-1.383240,0.185700,-0.193400
926500292,-1.401352,0.121200,-0.222624
926550846,-1.410404,0.056883,-0.241936
926601395,-1.401374,-0.016087,-0.231212
926651948,-1.410402,-0.071264,-0.250590
926702507,-1.401310,-0.107657,-0.240183
926753062,-1.392173,-0.153339,-0.239771
926803623,-1.401341,-0.180801,-0.239366
926854177,-1.392369,-0.207915,-0.219115
926904734,-1.402002,-0.207412,-0.179190
926955288,-1.430562,-0.124029,-0.090264
927005845,-1.431224,-0.049923,-0.021147
927056401,-1.431794,0.088046,0.037275
927106965,-1.395324,0.235061,0.075637
927157526,-1.377220,0.336253,0.114455
927208086,-1.376715,0.344727,0.064472
927258651,-1.394506,0.279814,0.005271
927309206,-1.403792,0.243212,0.005656
927359771,-1.421999,0.197131,-0.013814
927410326,-1.403628,0.188196,-0.003723
927460878,-1.403665,0.188203,-0.003731
927511432,-1.403747,0.197479,0.006155
927561987,-1.413178,0.179423,0.026312
927612539,-1.422439,0.151956,0.026607
927663094,-1.413341,0.124702,0.036878
927713647,-1.422387,0.069529,0.017503
927764209,-1.431233,0.023224,-0.021948
927814769,-1.431035,-0.059340,-0.041021
927865323,-1.421470,-0.160421,-0.079879
927915880,-1.402605,-0.252458,-0.128841
927966434,-1.373886,-0.363553,-0.237498
928016990,-1.317517,-0.447082,-0.346404
928067541,-1.242962,-0.539392,-0.435229
928118094,-1.168539,-0.622445,-0.514295
928168644,-1.094125,-0.687242,-0.593748
928219193,-1.019952,-0.742402,-0.642843
928269749,-0.945927,-0.788340,-0.682406
928320306,-0.890265,-0.806885,-0.721958
928370856,-0.853461,-0.815875,-0.721975
928421402,-0.862985,-0.824635,-0.691830
928471952,-0.928083,-0.833291,-0.632007
928522502,-1.021184,-0.804922,-0.532435
928573061,-1.104740,-0.767761,-0.462846
928623619,-1.142291,-0.721273,-0.393505
928674185,-1.160895,-0.711928,-0.373574
928724746,-1.179852,-0.729618,-0.323463
928775298,-1.180516,-0.737958,-0.263513
928825853,-1.162236,-0.792583,-0.252912
928876407,-1.116035,-0.847504,-0.272306
928926962,-1.060535,-0.920805,-0.301490
928977514,-1.004913,-0.939419,-0.341344
929078625,-1.004815,-0.921304,-0.351629
929129178,-1.069305,-0.875710,-0.342005
929179734,-1.125128,-0.820268,-0.282621
929230290,-1.152717,-0.783821,-0.283002
929280842,-1.134011,-0.820720,-0.312568
929331393,-1.087072,-0.858343,-0.402162
929381947,-1.040720,-0.885936,-0.431717
929432496,-1.004134,-0.912924,-0.411470
929483046,-0.985743,-0.940270,-0.411183
929533597,-0.976534,-0.949352,-0.411028
929584151,-0.976657,-0.958378,-0.401008
929634695,-0.986274,-0.948713,-0.361115
929685244,-1.023091,-0.930615,-0.361351
929735785,-1.032053,-0.921750,-0.381300
929786331,-1.031736,-0.894765,-0.411655
929836880,-1.040619,-0.876946,-0.441862
929887429,-1.049253,-0.859349,-0.491835
929937981,-1.021102,-0.841633,-0.542028
929988543,-0.974544,-0.860372,-0.591680
930039097,-0.936973,-0.842887,-0.661857
930089646,-0.881079,-0.834272,-0.721668
930140193,-0.852939,-0.825717,-0.771897
930190742,-0.815679,-0.798678,-0.812250
930241283,-0.824645,-0.771546,-0.832392
930291826,-0.833844,-0.753317,-0.832701
930342382,-0.870765,-0.744207,-0.822801
930392932,-0.889929,-0.761609,-0.752600
930443482,-0.918333,-0.806516,-0.682317
930494038,-0.927762,-0.833701,-0.661957
930544583,-0.937300,-0.851621,-0.631809
930595135,-0.928203,-0.851442,-0.621828
930645688,-0.918576,-0.861089,-0.661668
930696236,-0.909008,-0.824847,-0.691814
930746791,-0.881059,-0.815969,-0.721761
930797340,-0.862490,-0.816274,-0.742462
930847895,-0.862344,-0.816326,-0.751918
930898445,-0.871423,-0.789075,-0.762190
930948997,-0.871310,-0.780068,-0.772269
930999544,-0.861984,-0.771002,-0.782241
931050099,-0.861993,-0.761890,-0.782560
931100656,-0.870762,-0.762462,-0.822375
931151214,-0.870993,-0.753093,-0.802848
931201769,-0.871093,-0.752941,-0.792750
931252329,-0.871006,-0.771381,-0.802652
931302884,-0.870869,-0.762326,-0.812393
931353442,-0.852125,-0.753491,-0.842324
931403995,-0.824325,-0.753699,-0.862780
931454546,-0.796684,-0.753508,-0.862304
931505091,-0.787271,-0.753754,-0.882392
931555646,-0.777966,-0.762992,-0.892280
931606198,-0.778067,-0.753712,-0.882395
931656754,-0.777846,-0.744841,-0.902457
931707311,-0.796577,-0.744517,-0.872505
931757873,-0.796458,-0.726367,-0.882682
931808436,-0.824386,-0.726070,-0.852606
931858991,-0.824280,-0.707949,-0.863025
931909541,-0.833584,-0.726097,-0.852484
931960110,-0.861413,-0.707696,-0.832945
932010669,-0.907943,-0.688911,-0.782994
932061233,-0.973123,-0.688254,-0.713116
932111803,-1.038291,-0.687584,-0.643148
932162368,-1.084871,-0.687143,-0.593412
932212933,-1.103400,-0.705378,-0.583230
932263503,-1.112605,-0.668875,-0.583784
932314065,-1.121791,-0.641487,-0.584074
932364625,-1.149343,-0.568454,-0.584761
932415183,-1.185586,-0.468748,-0.635913
932465746,-1.231582,-0.331644,-0.627109
932516312,-1.259345,-0.212642,-0.608492
932566877,-1.287320,-0.111646,-0.569628
932617440,-1.324206,-0.029391,-0.560591
932668006,-1.324909,0.017283,-0.491125
932718571,-1.343627,0.035894,-0.461367
932769132,-1.362297,0.045225,-0.441685
932819688,-1.362172,0.045088,-0.451606
932870252,-1.362269,0.008651,-0.441105
932920809,-1.371266,-0.000808,-0.460968
932971371,-1.343576,-0.046534,-0.470472
933021930,-1.333761,-0.120454,-0.529511
933072496,-1.287365,-0.203076,-0.568572
933123053,-1.249826,-0.267857,-0.637676
933173611,-1.175399,-0.323480,-0.717152
933224173,-1.110128,-0.369982,-0.796431
933274728,-1.035211,-0.362143,-0.916449
933325291,-0.924109,-0.344172,-0.976710
933375850,-0.849217,-0.253882,-1.087226
933426404,-0.793570,-0.098604,-1.118999
933476962,-0.811780,0.020043,-1.129931
933527526,-0.839974,0.112164,-1.071021
933578091,-0.923221,0.167188,-1.031947
933628653,-0.960746,0.231976,-0.962743
933679217,-1.016485,0.268976,-0.913204
933729771,-1.072260,0.269406,-0.863395
933780327,-1.100374,0.269950,-0.813129
933830891,-1.137613,0.279468,-0.773297
933881449,-1.165548,0.298040,-0.743648
933932003,-1.193523,0.280043,-0.713702
933982551,-1.212654,0.280904,-0.643631
934033104,-1.268325,0.281198,-0.603775
