Timestamp (us),X (a.u.),Y (a.u.),Z (a.u.)
4500502002,-1.080229,-0.423975,0.068808
4500552721,-1.080171,-0.433150,0.078693
4500603449,-1.089427,-0.424093,0.078931
4500654170,-1.089332,-0.424147,0.098922
4500704888,-1.089391,-0.424131,0.088925
4500755618,-1.089358,-0.433258,0.088818
4500806348,-1.098742,-0.415088,0.079154
4500857062,-1.080181,-0.424002,0.078806
4500907784,-1.098742,-0.415088,0.079154
4500958523,-1.089391,-0.424131,0.088925
4501009258,-1.089451,-0.424114,0.078925
4501059990,-1.080100,-0.433156,0.088696
4501110718,-1.080096,-0.424066,0.098800
4501161447,-1.089403,-0.424141,0.088924
4501212172,-1.098601,-0.424259,0.099045
4501262896,-1.080133,-0.424029,0.088803
4501313616,-1.089358,-0.433258,0.088818
4501415074,-1.080144,-0.424039,0.088802
4501465792,-1.098742,-0.415088,0.079154
4501516524,-1.089346,-0.433248,0.088820
4501567261,-1.080122,-0.424018,0.088804
4501617989,-1.098601,-0.424259,0.099045
4501668708,-1.089376,-0.415030,0.099029
4501719435,-1.089332,-0.424147,0.098922
4501770157,-1.089439,-0.424104,0.078928
4501820881,-1.080125,-0.433108,0.078704
4501871603,-1.080133,-0.424029,0.088803
4501922324,-1.089451,-0.424114,0.078925
4501973037,-1.080133,-0.424029,0.088803
4502023755,-1.080159,-0.433140,0.078696
4502074476,-1.089391,-0.424131,0.088925
4502125201,-1.080181,-0.424002,0.078806
4502175928,-1.089439,-0.424104,0.078928
4502226646,-1.080082,-0.414964,0.108906
4502277373,-1.089439,-0.424104,0.078928
4502328105,-1.080143,-0.414880,0.088912
4502378821,-1.098733,-0.424169,0.069057
4502429548,-1.070997,-0.432985,0.058577
4502480289,-1.080181,-0.424002,0.078806
4502531011,-1.080169,-0.423991,0.078808
4502581731,-1.080159,-0.433140,0.078696
4502632456,-1.089502,-0.433178,0.058827
4502683178,-1.080181,-0.424002,0.078806
4502733907,-1.089427,-0.424093,0.078931
4502784642,-1.089484,-0.414986,0.079032
4502835371,-1.089346,-0.433248,0.088820
4502886100,-1.080088,-0.433146,0.088697
4502936829,-1.089475,-0.424067,0.068935
4502987560,-1.089380,-0.424120,0.088927
4503038289,-1.089439,-0.424104,0.078928
4503089022,-1.089406,-0.433231,0.078821
4503139741,-1.080144,-0.424039,0.088802
4503190470,-1.098685,-0.424195,0.079053
4503241208,-1.089586,-0.433114,0.038840
4503291947,-1.061952,-0.423638,0.018578
4503342684,-1.053029,-0.423349,-0.051525
4503393412,-1.062545,-0.441508,-0.121567
4503444142,-1.063053,-0.423023,-0.211359
4503494873,-1.082121,-0.386467,-0.300607
4503545600,-1.082765,-0.304140,-0.369682
4503596326,-1.055893,-0.166716,-0.448577
4503647063,-1.038068,-0.038583,-0.497243
4503697792,-1.047672,0.089052,-0.475469
4503748520,-1.029276,0.235060,-0.384178
4503799254,-1.029269,0.380807,-0.272432
4503849980,-1.029136,0.462716,-0.181496
4503900701,-1.056207,0.489346,-0.010872
4503951408,-1.046142,0.461670,0.138669
4504002123,-1.063746,0.397191,0.278142
4504052845,-1.090497,0.259673,0.386892
4504103559,-1.117480,0.149619,0.465917
4504154270,-1.126257,0.039930,0.484805
4504204989,-1.088993,-0.105552,0.422660
4504255684,-1.098075,-0.269710,0.330828
4504306394,-1.098126,-0.397197,0.219332
4504357113,-1.089343,-0.424157,0.098922
4504407810,-1.098847,-0.442306,0.028870
4504458529,-1.089995,-0.442012,-0.051250
4504509246,-1.090112,-0.432820,-0.071114
4504559961,-1.090195,-0.432825,-0.081184
4504610662,-1.090288,-0.423681,-0.091104
4504661374,-1.090043,-0.441985,-0.061247
4504712080,-1.090076,-0.432858,-0.061140
4504762790,-1.080770,-0.432782,-0.051265
4504813501,-1.080711,-0.432799,-0.041249
4504864212,-1.089921,-0.432927,-0.031131
4504914915,-1.099077,-0.451322,-0.021242
4504965633,-1.089851,-0.442092,-0.021258
4505016347,-1.089756,-0.442146,-0.001264
4505067060,-1.099152,-0.423918,-0.020889
4505117776,-1.089885,-0.432964,-0.021151
4505168502,-1.090076,-0.432858,-0.061140
4505219222,-1.090040,-0.432895,-0.051164
4505269943,-1.080829,-0.432766,-0.061284
4505320671,-1.090136,-0.432841,-0.071161
4505371389,-1.090157,-0.423703,-0.071031
4505422101,-1.080944,-0.414484,-0.071070
4505472813,-1.090169,-0.423714,-0.071054
4505523531,-1.080815,-0.423665,-0.051179
4505574251,-1.090085,-0.423777,-0.051077
4505626768,-1.090172,-0.432804,-0.081135
4505677478,-1.090051,-0.432905,-0.051184
4505728187,-1.080722,-0.432809,-0.041268
4505778897,-1.090061,-0.423757,-0.051036
4505829621,-1.099250,-0.433024,-0.041043
4505880336,-1.099227,-0.433003,-0.041004
4505981768,-1.089980,-0.432911,-0.041146
4506032482,-1.099190,-0.433040,-0.031026
4506083195,-1.089848,-0.433002,-0.011169
4506133912,-1.098939,-0.433163,0.018971
4506184633,-1.108329,-0.433174,-0.010879
4506235341,-1.080531,-0.432916,-0.001279
4506286047,-1.089825,-0.432981,-0.011139
4506336757,-1.099083,-0.433083,-0.011017
4506387476,-1.099062,-0.442221,-0.011138
4506438190,-1.099110,-0.442194,-0.021136
4506488894,-1.089756,-0.442146,-0.001264
4506539598,-1.089863,-0.442103,-0.021275
4506590303,-1.089767,-0.442156,-0.001277
4506641013,-1.099062,-0.442221,-0.011138
4506691714,-1.099062,-0.442221,-0.011138
4506742439,-1.089848,-0.433002,-0.011169
4506793131,-1.099050,-0.442210,-0.011123
4506843828,-1.108353,-0.433195,-0.010909
4506894536,-1.099143,-0.433066,-0.021029
4506945249,-1.099095,-0.433093,-0.011032
4506995961,-1.099190,-0.433040,-0.031026
4507046666,-1.089932,-0.432938,-0.031148
4507097380,-1.099047,-0.433120,-0.001034
4507148082,-1.108416,-0.442270,-0.031011
4507198783,-1.089885,-0.432964,-0.021151
4507249478,-1.099157,-0.442168,-0.031133
4507300181,-1.089840,-0.442082,-0.021241
4507350888,-1.099073,-0.442232,-0.011154
4507401596,-1.099110,-0.442194,-0.021136
4507452302,-1.099088,-0.451333,-0.021259
4507502995,-1.089744,-0.442135,-0.001250
4507553697,-1.089770,-0.451247,-0.011368
4507604405,-1.099002,-0.442237,-0.001127
4507655103,-1.099026,-0.442258,-0.001155
4507705804,-1.089851,-0.442092,-0.021258
4507756498,-1.099190,-0.433040,-0.031026
4507807206,-1.089840,-0.442082,-0.021241
4507857907,-1.108296,-0.442302,-0.010986
4507908614,-1.089870,-0.423864,-0.011047
4507959329,-1.089705,-0.433082,0.018827
4508010042,-1.089516,-0.442279,0.048723
4508060751,-1.098679,-0.442435,0.068839
4508111461,-1.107757,-0.442654,0.108952
4508162169,-1.089008,-0.424344,0.168903
4508212877,-1.098273,-0.406208,0.179225
4508263575,-1.098078,-0.397223,0.229329
4508314278,-1.107298,-0.388205,0.239517
4508364988,-1.098013,-0.379058,0.259557
4508415705,-1.116503,-0.370151,0.269883
4508466416,-1.116503,-0.370151,0.269883
4508517135,-1.116514,-0.370161,0.269906
4508567840,-1.107292,-0.370022,0.259763
4508618545,-1.116583,-0.360997,0.259992
4508669245,-1.107259,-0.379150,0.259657
4508719950,-1.107360,-0.397345,0.229487
4508770657,-1.098004,-0.388139,0.249410
4508821369,-1.098171,-0.388079,0.219455
4508872076,-1.116678,-0.397364,0.209564
4508922785,-1.098153,-0.406308,0.209243
4508973484,-1.107414,-0.415501,0.199246
4509024184,-1.107333,-0.424655,0.209137
4509074874,-1.098177,-0.406261,0.199217
4509125579,-1.116609,-0.406529,0.219470
4509176277,-1.116702,-0.397318,0.199540
4509226974,-1.116631,-0.397391,0.219560
4509277672,-1.107429,-0.388181,0.219578
4509328377,-1.107420,-0.397262,0.209442
4509379073,-1.098078,-0.397223,0.229329
4509429783,-1.107277,-0.397342,0.239429
4509480486,-1.107403,-0.379070,0.229665
4509531194,-1.098121,-0.378949,0.229507
4509581915,-1.107418,-0.388171,0.219561
4509632623,-1.116640,-0.388309,0.229698
4509683336,-1.116547,-0.397454,0.239571
4509734041,-1.116547,-0.397454,0.239571
4509784746,-1.107292,-0.406443,0.229327
4509835464,-1.107277,-0.397342,0.239429
4509886192,-1.098040,-0.388103,0.239394
4509936904,-1.107361,-0.397279,0.219421
4509987617,-1.107265,-0.397332,0.239410
4510038327,-1.107406,-0.388161,0.219544
4510089042,-1.107289,-0.397352,0.239449
4510139767,-1.116562,-0.406555,0.229467
4510190466,-1.107241,-0.397379,0.249446
4510241173,-1.107289,-0.397352,0.239449
4510291888,-1.116532,-0.388353,0.249675
4510342585,-1.116616,-0.388290,0.229662
4510393289,-1.107381,-0.388207,0.229576
4510443986,-1.116607,-0.397437,0.229592
4510494699,-1.116595,-0.397427,0.229574
4510545423,-1.107274,-0.388251,0.249553
4510596130,-1.098123,-0.388105,0.229454
4510646839,-1.116655,-0.397411,0.219593
4510697545,-1.116619,-0.397447,0.229610
4510798965,-1.098031,-0.397250,0.239326
4510849673,-1.107348,-0.397335,0.229469
4510900382,-1.107334,-0.388234,0.239575
4510951092,-1.107348,-0.397335,0.229469
4511001804,-1.116595,-0.397427,0.229574
4511052512,-1.116609,-0.406529,0.219470
4511103213,-1.098105,-0.406334,0.219242
4511153915,-1.107337,-0.397325,0.229451
4511204609,-1.107337,-0.397325,0.229451
4511255315,-1.107459,-0.406383,0.199367
4511306010,-1.116595,-0.397427,0.229574
4511356717,-1.107346,-0.388178,0.229522
4511407410,-1.116547,-0.397454,0.239571
4511458121,-1.125901,-0.397503,0.219699
