Timestamp (us),X (a.u.),Y (a.u.),Z (a.u.)
6020031562,-1.285158,-0.591404,-0.117597
6020082102,-1.285283,-0.591277,-0.107478
6020132635,-1.285250,-0.591254,-0.107440
6020183166,-1.285226,-0.582079,-0.107518
6020233703,-1.294359,-0.582272,-0.117671
6020284221,-1.285185,-0.582264,-0.117737
6020334752,-1.294577,-0.581995,-0.097398
6020385280,-1.303825,-0.591212,-0.097315
6020435812,-1.285392,-0.591139,-0.097339
6020486341,-1.294560,-0.581983,-0.097380
6020536874,-1.285415,-0.600314,-0.097259
6020587403,-1.285375,-0.591127,-0.097321
6020637934,-1.303607,-0.591489,-0.117591
6020688464,-1.294491,-0.591308,-0.107456
6020738989,-1.294365,-0.591435,-0.117573
6020789515,-1.285524,-0.600176,-0.087118
6020840058,-1.294468,-0.582133,-0.107534
6020890584,-1.275933,-0.591361,-0.117600
6020941114,-1.294737,-0.581891,-0.087310
6020991641,-1.285307,-0.600453,-0.107400
6021042170,-1.285398,-0.600302,-0.097241
6021092701,-1.276059,-0.591235,-0.107482
6021143230,-1.285290,-0.600441,-0.107381
6021193757,-1.285083,-0.591566,-0.127780
6021244290,-1.285386,-0.581975,-0.097437
6021294817,-1.294410,-0.582307,-0.117733
6021345356,-1.285317,-0.591301,-0.107517
6021395887,-1.285317,-0.591301,-0.107517
6021446419,-1.303630,-0.600665,-0.117514
6021496952,-1.294640,-0.600357,-0.097256
6021547487,-1.285330,-0.609629,-0.107322
6021598019,-1.285215,-0.600604,-0.117562
6021648548,-1.275755,-0.600826,-0.137826
6021699074,-1.275521,-0.601091,-0.158082
6021749599,-1.284556,-0.592271,-0.178514
6021800127,-1.284292,-0.574197,-0.198931
6021850654,-1.283947,-0.547122,-0.229643
6021901190,-1.301828,-0.511246,-0.280726
6021951728,-1.319933,-0.484256,-0.311432
6022002262,-1.329007,-0.447774,-0.321911
6022052795,-1.338345,-0.401878,-0.312353
6022103329,-1.347921,-0.410677,-0.281872
6022153867,-1.329591,-0.428781,-0.271540
6022204401,-1.311292,-0.465223,-0.261053
6022254931,-1.311092,-0.492992,-0.281048
6022305461,-1.302265,-0.538171,-0.239837
6022355993,-1.274655,-0.583884,-0.239432
6022406526,-1.247116,-0.647750,-0.228580
6022457055,-1.210253,-0.702561,-0.228006
6022507582,-1.173503,-0.784707,-0.216964
6022558109,-1.108750,-0.839666,-0.236676
6022608642,-1.052907,-0.895101,-0.286843
6022659170,-0.987477,-0.932545,-0.367536
6022709700,-0.959072,-0.933444,-0.438708
6022760228,-0.930824,-0.906499,-0.489651
6022810758,-0.948472,-0.861717,-0.561039
6022861284,-1.003228,-0.789357,-0.612500
6022911809,-1.048854,-0.680177,-0.654311
6022962343,-1.075718,-0.589651,-0.726371
6023012872,-1.075222,-0.498566,-0.767918
6023063403,-1.093259,-0.444043,-0.798470
6023113930,-1.083919,-0.398342,-0.809329
6023164458,-1.093604,-0.434484,-0.768376
6023214990,-1.093380,-0.425598,-0.788753
6023265518,-1.103410,-0.488816,-0.717089
6023316045,-1.112666,-0.498044,-0.717194
6023366573,-1.130854,-0.470893,-0.737554
6023417112,-1.131257,-0.525494,-0.706853
6023467642,-1.150095,-0.534142,-0.665790
6023518177,-1.159232,-0.525183,-0.676218
6023568711,-1.177765,-0.506791,-0.666170
6023619252,-1.196428,-0.479119,-0.646271
6023669785,-1.232900,-0.351406,-0.677953
6023720319,-1.251242,-0.214033,-0.679316
6023770852,-1.241508,-0.058772,-0.721740
6023821378,-1.213496,0.096861,-0.743587
6023871906,-1.194751,0.234125,-0.765448
6023922428,-1.176444,0.344451,-0.746345
6023972956,-1.195726,0.382123,-0.665507
6024023483,-1.289405,0.310179,-0.532725
6024074011,-1.354846,0.228392,-0.461066
6024124540,-1.393204,0.110892,-0.327852
6024175070,-1.431259,0.038799,-0.225710
6024225600,-1.441672,-0.078986,-0.123061
6024276128,-1.433309,-0.197106,-0.050817
6024326660,-1.406430,-0.305962,0.021347
6024377199,-1.397344,-0.379082,0.032265
6024427734,-1.387927,-0.388487,0.012081
6024478268,-1.388145,-0.360727,0.032067
6024528793,-1.415765,-0.278381,0.031196
6024579324,-1.415332,-0.150502,-0.000591
6024629855,-1.433382,-0.041041,-0.032177
6024680386,-1.442361,0.059440,-0.053551
6024730922,-1.424180,0.087430,-0.023409
6024781460,-1.443307,0.051521,0.037826
6024831992,-1.426025,-0.066134,0.140487
6024882519,-1.408147,-0.239606,0.182917
6024933044,-1.372126,-0.385092,0.255487
6024983576,-1.317152,-0.512695,0.287195
6025034114,-1.252206,-0.632065,0.247856
6025084661,-1.197028,-0.723304,0.258953
6025135178,-1.178078,-0.788054,0.208940
6025185715,-1.141001,-0.824830,0.189063
6025236237,-1.131783,-0.833951,0.189158
6025286763,-1.140901,-0.815821,0.178846
6025337292,-1.168325,-0.788719,0.158263
6025387814,-1.195965,-0.761342,0.157962
6025438345,-1.214172,-0.725051,0.137300
6025488874,-1.214064,-0.725189,0.127162
6025539405,-1.231912,-0.707834,0.066161
6025589938,-1.222802,-0.716817,0.076399
6025640465,-1.184674,-0.763931,-0.034668
6025691005,-1.175803,-0.781815,-0.004066
6025741525,-1.157727,-0.808836,0.026637
6025792059,-1.130056,-0.836183,0.026923
6025842607,-1.147962,-0.836961,-0.023776
6025893157,-1.147818,-0.827904,-0.033996
6025943692,-1.138860,-0.836797,-0.013645
6025994225,-1.129409,-0.846178,-0.033826
6026044760,-1.129097,-0.846611,-0.064263
6026095297,-1.155840,-0.820306,-0.145611
6026145832,-1.219714,-0.684027,-0.207985
6026196366,-1.283167,-0.520601,-0.300914
6026246903,-1.329495,-0.447248,-0.281487
6026297435,-1.331038,-0.500281,-0.138883
6026347965,-1.313816,-0.571970,-0.026548
6026449030,-1.176235,-0.799572,0.036688
6026499557,-1.092771,-0.891567,-0.013074
6026550081,-1.017587,-0.975463,-0.144021
6026600609,-0.905741,-1.049783,-0.254812
6026651137,-0.812334,-1.096720,-0.365946
6026701670,-0.765236,-1.097776,-0.457298
6026752199,-0.809423,-0.999480,-0.630504
6026802728,-0.937926,-0.826700,-0.683207
6026853261,-1.086643,-0.725043,-0.572598
6026903788,-1.207043,-0.624106,-0.522935
6026954317,-1.290070,-0.468571,-0.514430
6027004852,-1.336761,-0.339664,-0.454945
6027055379,-1.375233,-0.411204,-0.312195
6027105896,-1.366751,-0.410183,-0.241184
6027156422,-1.377747,-0.453826,-0.078480
6027206950,-1.370211,-0.451733,0.073608
6027257474,-1.378995,-0.388198,0.032357
6027308011,-1.388612,-0.378507,0.072832
6027409066,-1.388369,-0.369613,0.052447
6027459597,-1.387908,-0.360996,0.011787
6027510136,-1.387069,-0.380439,-0.069148
6027560661,-1.404093,-0.363998,-0.201171
6027611189,-1.393211,-0.329378,-0.353680
6027661715,-1.326119,-0.286454,-0.587520
6027712246,-1.222378,-0.224592,-0.790748
6027762772,-1.110261,-0.198396,-0.923007
6027813297,-1.055712,-0.398916,-0.860159
6027863823,-1.039031,-0.616668,-0.705602
6027914353,-1.039821,-0.735040,-0.643959
6027964884,-0.985265,-0.834571,-0.571626
6028015413,-0.921599,-0.933909,-0.489216
6028065951,-0.876845,-1.014524,-0.366748
6028116480,-0.942958,-1.022068,-0.224710
6028167013,-0.998924,-0.966510,-0.164432
6028217546,-1.109769,-0.856780,-0.145286
6028268075,-1.203241,-0.754729,-0.024630
6028318610,-1.231096,-0.699599,-0.004927
6028369145,-1.240641,-0.690062,0.025397
6028419677,-1.259543,-0.689607,0.065966
6028470212,-1.231308,-0.690158,0.015254
6028520748,-1.230776,-0.709178,-0.035249
6028571285,-1.239918,-0.700223,-0.045505
6028621833,-1.239570,-0.691461,-0.076015
6028672380,-1.229996,-0.682657,-0.106519
6028722915,-1.229925,-0.691987,-0.116603
6028773454,-1.220370,-0.710673,-0.146813
6028823991,-1.192726,-0.756364,-0.146333
6028874526,-1.174947,-0.782938,-0.085200
6028925071,-1.156510,-0.801180,-0.085011
6028975613,-1.166143,-0.782326,-0.044628
6029026156,-1.175515,-0.773113,-0.034612
6029076691,-1.203353,-0.736278,-0.014692
6029127225,-1.231650,-0.689756,0.045674
6029177756,-1.259855,-0.643386,0.095909
6029228285,-1.269388,-0.615521,0.126046
6029278811,-1.269298,-0.643151,0.116197
6029329337,-1.241302,-0.652603,0.085858
6029379861,-1.250745,-0.652368,0.106146
6029430381,-1.269424,-0.643025,0.126352
6029480902,-1.260165,-0.642958,0.126323
6029531426,-1.269200,-0.634138,0.105966
