Timestamp (us),X (a.u.),Y (a.u.),Z (a.u.)
8950810414,-1.189256,-0.006143,-0.238245
8950860798,-1.189333,-0.005785,-0.217978
8950911189,-1.189228,0.003223,-0.228140
8950961577,-1.207744,-0.015373,-0.227850
8951011967,-1.180138,-0.015036,-0.228128
8951062347,-1.189311,-0.005967,-0.228148
8951112732,-1.207652,0.002809,-0.238224
8951163114,-1.198518,-0.006081,-0.228068
8951213496,-1.198390,0.002746,-0.248399
8951263883,-1.189225,0.012400,-0.228314
8951314273,-1.198514,-0.015442,-0.238102
8951364638,-1.189403,-0.024149,-0.217776
8951415013,-1.189399,-0.033510,-0.227808
8951465394,-1.189511,-0.042333,-0.207440
8951515768,-1.198698,-0.051804,-0.217357
8951566150,-1.198675,-0.051987,-0.227526
8951616531,-1.189507,-0.051695,-0.217473
8951666920,-1.198787,-0.060811,-0.207158
8951717307,-1.198761,-0.032906,-0.187194
8951767686,-1.207972,-0.023658,-0.177082
8951818067,-1.198691,-0.014542,-0.187397
8951868448,-1.207829,0.003708,-0.187519
8951918831,-1.207756,0.012711,-0.197753
8951969213,-1.189454,0.004115,-0.177546
8952019597,-1.207854,0.022429,-0.167482
8952069976,-1.207833,0.013069,-0.177487
8952120357,-1.198618,-0.005540,-0.197631
8952170741,-1.207756,0.012711,-0.197753
8952221126,-1.207803,-0.005835,-0.207718
8952271515,-1.198596,-0.005722,-0.207798
8952321906,-1.198630,-0.014904,-0.207697
8952372291,-1.207764,-0.006015,-0.217853
8952422682,-1.198653,-0.014722,-0.197530
8952473071,-1.198669,-0.014725,-0.197562
8952523455,-1.198630,-0.014904,-0.207697
8952573839,-1.198614,-0.014901,-0.207664
8952624218,-1.189439,-0.014793,-0.207811
8952674597,-1.198614,-0.014901,-0.207664
8952724983,-1.207904,-0.014471,-0.177125
8952775367,-1.207897,-0.005479,-0.187479
8952825744,-1.207807,0.003526,-0.197684
8952876122,-1.207760,0.022072,-0.187721
8952926505,-1.198212,0.039294,-0.258937
8952976891,-1.170433,0.067003,-0.269573
8953027279,-1.188716,0.084779,-0.289924
8953077664,-1.170243,0.075467,-0.310202
8953128046,-1.161170,0.010583,-0.350264
8953228831,-1.133088,-0.000405,-0.471896
8953279216,-1.095937,0.026516,-0.533402
8953329603,-1.077245,0.044214,-0.584352
8953379991,-1.040388,0.007226,-0.624708
8953430383,-0.994483,-0.075744,-0.674960
8953480773,-0.948409,-0.075355,-0.685495
8953531160,-0.975201,0.088685,-0.737632
8953581549,-0.947156,0.217751,-0.729375
8953631936,-0.918848,0.401901,-0.721183
8953682317,-0.872457,0.624988,-0.602538
8953732701,-0.798581,0.830406,-0.463559
8953783080,-0.724983,0.962370,-0.323772
8953883851,-0.716377,1.011978,-0.121720
8953934237,-0.753240,1.002342,-0.121297
8953984621,-0.772184,0.976542,-0.009382
8954035005,-0.855715,0.913220,0.103501
8954085388,-0.938916,0.801658,0.085174
8954135770,-1.068614,0.598248,0.098657
8954186153,-1.180153,0.321436,0.102668
8954236540,-1.208290,0.211448,0.134508
8954286921,-1.198846,0.238566,0.103716
8954337301,-1.189325,0.293063,0.062525
8954387687,-1.180073,0.367710,0.122444
8954438070,-1.134039,0.461714,0.212244
8954488454,-1.051108,0.584047,0.321557
8954538836,-1.005201,0.641162,0.401703
8954589217,-0.959533,0.624789,0.482503
8954639597,-1.005884,0.522872,0.463819
8954689981,-1.097421,0.481951,0.292720
8954740370,-1.152765,0.360293,0.203330
8954790746,-1.198455,0.264853,0.032498
8954841118,-1.216855,0.068228,-0.167852
8954891492,-1.152779,-0.228201,-0.357684
8954941863,-1.097083,-0.276701,-0.540445
8954992237,-1.022432,-0.093187,-0.603492
8955042615,-1.012608,-0.002511,-0.675508
8955093000,-0.993378,0.255523,-0.637974
8955143372,-0.974401,0.496083,-0.549495
8955193754,-0.928312,0.701885,-0.369831
8955244126,-0.900583,0.832549,-0.270128
8955294492,-0.873016,0.842444,-0.250247
8955344861,-0.928333,0.814052,-0.259633
8955395240,-0.891387,0.832677,-0.270249
8955445623,-0.891272,0.813430,-0.320755
8955495994,-0.881867,0.803286,-0.381535
8955546366,-0.900408,0.738247,-0.411066
8955596748,-0.946692,0.598694,-0.480080
8955647130,-1.011587,0.347658,-0.608611
8955697520,-1.030982,0.053254,-0.625107
8955747900,-0.984528,0.098470,-0.697126
8955798275,-0.947302,0.199745,-0.708903
8955848653,-0.882537,0.255271,-0.730017
8955899029,-0.928429,0.412771,-0.620085
8955949421,-0.872708,0.579437,-0.581768
8955999786,-0.835679,0.719064,-0.502626
8956050163,-0.780222,0.849548,-0.433591
8956100535,-0.743421,0.896824,-0.383809
8956150905,-0.771380,0.907326,-0.292588
8956201274,-0.743495,0.906529,-0.353453
8956251654,-0.715723,0.915514,-0.384195
8956302032,-0.743612,0.907067,-0.323053
8956352406,-0.817232,0.821907,-0.412700
8956402777,-0.928141,0.551577,-0.560802
8956453150,-1.021210,0.265442,-0.577129
8956503524,-0.984053,0.311088,-0.618490
8956553900,-0.928237,0.439953,-0.640560
8956604279,-0.891315,0.467959,-0.641280
8956654651,-0.881992,0.645040,-0.501415
8956705024,-0.807970,0.803105,-0.442912
8956755401,-0.743484,0.897153,-0.363431
8956805773,-0.688153,0.944118,-0.344206
8956856144,-0.706726,0.953969,-0.293480
8956906507,-0.762057,0.907004,-0.312711
8956956871,-0.808329,0.879459,-0.281696
8957007242,-0.863484,0.784970,-0.391626
8957057622,-0.928366,0.533930,-0.520066
8957108000,-0.965407,0.515822,-0.478937
8957158375,-0.955999,0.561673,-0.489728
8957208749,-0.919065,0.608387,-0.470218
8957259121,-0.919120,0.711371,-0.359935
8957309495,-0.891652,0.796501,-0.239486
8957359860,-0.901177,0.816545,-0.138274
8957410227,-0.947274,0.778890,-0.157734
8957460595,-0.983994,0.647188,-0.307950
8957510965,-1.039681,0.573779,-0.266172
8957561332,-1.058199,0.518086,-0.285583
8957611706,-1.058200,0.490010,-0.315719
8957662077,-1.048718,0.479507,-0.396754
8957712444,-1.039326,0.469370,-0.457593
8957762815,-0.993058,0.468861,-0.518795
8957863550,-0.946706,0.477350,-0.590144
8957913928,-0.909754,0.458544,-0.640923
8957964298,-0.891217,0.420794,-0.711708
8958014674,-0.881926,0.383107,-0.772298
8958065051,-0.845218,0.328107,-0.792165
8958115431,-0.836050,0.328400,-0.782112
8958165805,-0.826716,0.374606,-0.772679
8958216186,-0.835845,0.439490,-0.732876
8958266565,-0.863527,0.486138,-0.672323
8958316938,-0.928236,0.477230,-0.610750
8958367314,-0.993174,0.441321,-0.518570
8958417688,-1.048910,0.386972,-0.436269
8958468061,-1.076942,0.267089,-0.444845
8958518433,-1.114284,0.194080,-0.393235
8958568808,-1.123724,0.139052,-0.382353
8958619179,-1.151843,0.038246,-0.350594
8958669550,-1.161696,-0.024353,-0.248496
8958719925,-1.179981,0.030873,-0.228670
8958770298,-1.179863,0.151857,-0.138735
8958820668,-1.179885,0.254658,-0.038508
8958871043,-1.179900,0.310995,0.031834
8958921410,-1.170819,0.348922,0.092162
8958971780,-1.152579,0.340679,0.132625
8959022145,-1.143529,0.294879,0.133034
8959072511,-1.180498,0.248510,0.133829
8959122881,-1.180955,0.194499,0.195235
8959173256,-1.172107,0.168321,0.266336
8959223622,-1.144273,0.298456,0.335582
8959273995,-1.051954,0.485201,0.444235
8959324368,-0.922966,0.626487,0.553028
8959374741,-0.821538,0.720449,0.601784
8959425108,-0.738713,0.768305,0.651392
8959475479,-0.692504,0.814783,0.650484
8959525851,-0.701970,0.787840,0.691402
8959576218,-0.692913,0.779310,0.721823
8959626591,-0.683510,0.787873,0.681011
8959676967,-0.664970,0.824859,0.680639
8959727334,-0.655459,0.851606,0.629491
8959777707,-0.701342,0.840975,0.579410
8959828080,-0.812410,0.702212,0.601991
8959878441,-0.959737,0.560337,0.473080
8959928806,-1.144241,0.260670,0.275360
8959979178,-1.173333,-0.143860,0.269882
8960029558,-1.209846,-0.145938,0.179048
8960079930,-1.191142,-0.202946,0.057849
8960130298,-1.181873,-0.203197,0.037503
8960180665,-1.199935,-0.176948,-0.023441
8960231033,-1.218051,-0.113076,-0.034114
8960281405,-1.217700,-0.030620,-0.045156
8960331771,-1.207949,0.088499,-0.066803
8960382133,-1.207803,0.209119,0.002790
8960432486,-1.180143,0.349346,0.122646
8960482848,-1.124817,0.461820,0.212136
8960533219,-1.069576,0.555935,0.301842
8960633947,-0.977715,0.651557,0.451902
8960734689,-0.996149,0.613920,0.412117
8960785060,-1.041968,0.556286,0.301642
8960835431,-1.115868,0.435105,0.252893
8960885797,-1.171340,0.286074,0.173904
8960936167,-1.208455,0.109373,0.074836
8960986535,-1.199684,-0.093947,-0.004081
8961036898,-1.154381,-0.276836,0.007673
8961087266,-1.136422,-0.386610,0.018858
8961137634,-1.108852,-0.479534,-0.061440
8961188004,-1.090456,-0.525934,-0.101628
8961238377,-1.035205,-0.543975,-0.122175
8961288743,-1.044461,-0.581383,-0.152142
8961339114,-1.035042,-0.563415,-0.182773
8961389479,-1.034801,-0.555116,-0.233503
8961490217,-1.034386,-0.500909,-0.284724
8961540586,-1.034322,-0.501281,-0.305034
8961590952,-1.043102,-0.447392,-0.366409
8961641324,-1.051963,-0.383780,-0.397498
8961691691,-1.051919,-0.365226,-0.387506
8961792421,-1.079355,-0.291762,-0.367864
8961842790,-1.088709,-0.309881,-0.347312
8961893159,-1.061425,-0.420084,-0.366609
8961943525,-0.996511,-0.449322,-0.508600
8961993886,-0.968635,-0.431743,-0.570181
8962044253,-0.950240,-0.459191,-0.579824
8962094619,-0.904242,-0.486541,-0.600277
8962144987,-0.894807,-0.478142,-0.651126
8962195356,-0.885457,-0.450662,-0.661643
8962245728,-0.876143,-0.451099,-0.692228
8962296093,-0.866750,-0.433159,-0.722915
8962346460,-0.866656,-0.405625,-0.723327
8962396829,-0.875923,-0.424091,-0.722936
8962447197,-0.857646,-0.441856,-0.702519
8962497561,-0.848525,-0.469262,-0.702085
8962547924,-0.839504,-0.505709,-0.691734
8962598288,-0.839491,-0.515056,-0.701659
8962648658,-0.858005,-0.505592,-0.671411
8962699020,-0.867261,-0.505305,-0.650769
8962749386,-0.922426,-0.459747,-0.630725
8962799740,-0.959292,-0.422781,-0.590459
8962850109,-0.977588,-0.376716,-0.570362
8962900475,-1.005005,-0.312606,-0.560697
8962950845,-1.041780,-0.285345,-0.550631
8963001220,-1.041793,-0.285354,-0.550714
8963051591,-1.041897,-0.284806,-0.520231
8963101961,-1.050992,-0.276097,-0.540518
8963152329,-1.041802,-0.294517,-0.550446
8963202701,-1.032738,-0.321769,-0.540091
8963253066,-1.014384,-0.330744,-0.540315
8963303431,-1.014514,-0.358101,-0.529796
8963353798,-1.023523,-0.340378,-0.560233
8963404168,-1.023495,-0.312683,-0.550655
8963454534,-1.023466,-0.322025,-0.560520
8963504898,-1.023712,-0.348843,-0.519604
8963555269,-1.042493,-0.394082,-0.468278
8963605640,-1.061180,-0.421149,-0.427352
8963656003,-1.042903,-0.429554,-0.396950
8963706364,-1.042942,-0.429589,-0.397134
8963756728,-1.052107,-0.439244,-0.417225
8963807088,-1.033808,-0.466577,-0.417147
8963857458,-1.024533,-0.475979,-0.437267
8963907821,-1.006057,-0.466761,-0.447732
8963958184,-1.006149,-0.494295,-0.447360
8964008556,-1.006016,-0.476084,-0.457557
8964058931,-0.996845,-0.476009,-0.457848
8964109295,-0.987564,-0.466893,-0.468166
8964159659,-0.996689,-0.485870,-0.498064
8964210019,-0.987559,-0.485398,-0.477880
8964260378,-0.996817,-0.485345,-0.467740
8964310736,-1.005963,-0.476469,-0.477967
8964361108,-1.006045,-0.466749,-0.447664
8964411469,-1.024274,-0.449150,-0.478110
8964461835,-1.024209,-0.421424,-0.468279
8964512198,-1.024170,-0.421603,-0.478413
8964562565,-1.024096,-0.412600,-0.488649
8964612930,-1.024045,-0.412768,-0.498708
8964663304,-1.014799,-0.412834,-0.508922
8964713667,-0.996312,-0.403604,-0.519317
8964764031,-1.005655,-0.412564,-0.499021
8964814392,-1.005712,-0.430917,-0.498743
8964864744,-1.005674,-0.431096,-0.508877
8964915108,-1.005869,-0.458079,-0.478023
8964965471,-1.014911,-0.449754,-0.518730
8965066198,-0.977986,-0.431126,-0.529469
8965116561,-0.977927,-0.450017,-0.559590
8965166921,-0.968716,-0.459265,-0.569705
8965217284,-0.959215,-0.423140,-0.610729
8965267648,-0.949927,-0.404650,-0.610919
8965318007,-0.940729,-0.432645,-0.641290
8965368373,-0.903895,-0.441553,-0.651646
