Timestamp (us),X (a.u.),Y (a.u.),Z (a.u.)
9954005270,-0.027897,-0.361654,1.442327
9954055661,-0.028081,-0.334149,1.441958
9954106058,-0.037400,-0.288201,1.431090
9954156452,-0.019332,-0.279215,1.441937
9954206843,-0.037687,-0.260714,1.441658
9954307628,-0.037706,-0.242357,1.431034
9954358023,-0.037951,-0.205684,1.430822
9954408422,-0.047170,-0.205619,1.441254
9954458800,-0.038319,-0.196600,1.460647
9954509177,-0.047435,-0.196514,1.460773
9954559556,-0.029040,-0.205812,1.451320
9954609934,-0.047108,-0.214796,1.440887
9954660316,-0.028816,-0.224120,1.441533
9954710712,-0.038013,-0.242442,1.460912
9954761108,-0.037706,-0.242360,1.430826
9954811505,-0.028509,-0.269971,1.441378
9954861902,-0.028509,-0.269971,1.441378
9954912315,-0.028284,-0.288278,1.431594
9954962705,-0.019148,-0.306726,1.441676
9955013094,-0.028203,-0.315817,1.441223
9955113888,-0.036992,-0.334011,1.421675
9955164286,-0.027876,-0.334088,1.422383
9955214675,-0.018801,-0.343367,1.432624
9955265074,-0.027917,-0.343286,1.432329
9955365861,-0.036747,-0.370684,1.422094
9955416255,-0.045965,-0.370631,1.432105
9955466647,-0.018413,-0.370817,1.412378
9955517031,-0.036584,-0.379821,1.412669
9955567419,-0.018536,-0.398411,1.442415
9955617812,-0.027243,-0.398212,1.402560
9955668193,-0.027345,-0.398241,1.412450
9955718575,-0.027509,-0.389102,1.422493
9955768959,-0.027284,-0.407410,1.412297
9955819339,-0.018271,-0.407521,1.422479
9955920123,-0.008971,-0.435108,1.422724
9955970520,-0.017862,-0.453334,1.412854
9956020905,-0.036032,-0.462336,1.411910
9956071298,-0.017740,-0.471671,1.412960
9956121690,-0.008399,-0.490062,1.403467
9956172077,-0.035522,-0.508121,1.393015
9956222475,-0.035359,-0.517262,1.383382
9956272862,-0.026182,-0.526510,1.383320
9956323252,-0.026243,-0.517340,1.383065
9956373642,-0.026304,-0.508174,1.383214
9956424040,-0.026406,-0.508205,1.393305
9956474438,-0.026345,-0.517366,1.392546
9956524838,-0.044760,-0.489704,1.393026
9956575242,-0.017291,-0.508281,1.392783
9956625638,-0.035420,-0.508094,1.383329
9956676033,-0.026365,-0.499004,1.382959
9956726439,-0.026570,-0.499067,1.403346
9956776854,-0.026079,-0.526483,1.373632
9956827248,-0.026345,-0.517368,1.392749
9956877643,-0.044577,-0.517210,1.393185
9956928041,-0.026345,-0.517375,1.393561
9956978428,-0.017474,-0.480781,1.393233
9957028817,-0.036257,-0.444032,1.422724
9957079211,-0.027795,-0.361626,1.432017
9957129596,-0.046679,-0.278978,1.441047
9957179985,-0.047434,-0.150597,1.430210
9957230380,-0.066462,-0.031232,1.429765
9957280767,-0.076149,0.115664,1.389273
9957331158,-0.112896,0.235317,1.338594
9957431933,-0.194876,0.548416,1.128526
9957482313,-0.257701,0.677858,0.949021
9957532701,-0.329057,0.780036,0.730315
9957583092,-0.408600,0.836586,0.452231
9957633493,-0.469814,0.847094,0.194475
9957683913,-0.557731,0.775385,-0.072952
9957734265,-0.618477,0.684980,-0.310383
9957784641,-0.679081,0.511941,-0.507778
9957835019,-0.721820,0.366153,-0.685212
9957885406,-0.755874,0.155930,-0.783407
9957935801,-0.799456,-0.054345,-0.842173
9957986201,-0.825134,-0.283303,-0.850681
9958036602,-0.851420,-0.503217,-0.810118
9958087001,-0.841657,-0.741953,-0.719839
9958137395,-0.860313,-0.934817,-0.550622
9958187801,-0.870519,-1.091206,-0.342117
9958238195,-0.863387,-1.183750,-0.094336
9958288591,-0.838219,-1.221350,0.143461
9958338984,-0.795664,-1.167517,0.400673
9958389381,-0.771143,-1.095082,0.627844
9958439782,-0.737831,-0.949357,0.835222
9958490173,-0.694977,-0.785198,0.992791
9958540576,-0.643031,-0.575203,1.120808
9958590973,-0.608579,-0.383196,1.189447
9958641374,-0.528527,-0.145668,1.228235
9958691761,-0.474710,0.046500,1.188086
9958742153,-0.420906,0.257021,1.137772
9958792543,-0.384680,0.412825,1.058428
9958842935,-0.311485,0.540859,0.949580
9958893317,-0.265435,0.669197,0.820689
9958943706,-0.219095,0.770036,0.681960
9958994098,-0.181713,0.815906,0.563367
9959044489,-0.162317,0.871222,0.414946
9959094884,-0.115389,0.898789,0.266903
9959145266,-0.077639,0.889573,0.148499
9959195658,-0.067236,0.880677,0.029979
9959246053,-0.056628,0.871866,-0.108322
9959296436,-0.037130,0.835324,-0.206833
9959346823,-0.026787,0.789689,-0.295520
9959397211,-0.025583,0.762456,-0.394227
9959447598,-0.033672,0.716968,-0.463438
9959497991,-0.023543,0.671163,-0.532091
9959548378,-0.023099,0.634507,-0.551524
9959598768,-0.022622,0.625519,-0.591227
9959649158,-0.022254,0.616439,-0.620843
9959699546,-0.013386,0.607080,-0.590963
9959749927,-0.022295,0.607241,-0.610901
9959800323,-0.022438,0.598013,-0.591069
9959850714,-0.013348,0.616258,-0.600832
9959901105,-0.022295,0.607241,-0.610901
9959951494,-0.022137,0.598062,-0.620587
9960001879,-0.030826,0.579876,-0.650149
9960052273,-0.030555,0.570806,-0.670032
9960102663,-0.021116,0.552428,-0.689531
9960153061,-0.021013,0.552457,-0.699418
9960203456,-0.029613,0.506793,-0.719192
9960253853,-0.011280,0.506660,-0.728908
9960304244,-0.011283,0.506642,-0.728818
9960354631,-0.020465,0.515855,-0.728776
9960405024,-0.029636,0.525142,-0.729097
9960455418,-0.020526,0.525023,-0.728829
9960505815,-0.011709,0.524908,-0.699345
9960556206,-0.020991,0.534110,-0.689510
9960606599,-0.012409,0.552228,-0.649896
9960656987,-0.012855,0.588861,-0.630411
9960707373,-0.031511,0.607313,-0.601171
9960757757,-0.022466,0.616319,-0.600846
9960808144,-0.004653,0.634485,-0.571396
9960858533,-0.014326,0.671111,-0.541892
9960908924,-0.014790,0.680203,-0.502510
9960959310,-0.006338,0.716590,-0.462856
9961009695,-0.016286,0.734846,-0.393938
9961060089,-0.025667,0.744037,-0.374301
9961110484,0.000783,0.771113,-0.305013
9961160866,-0.008825,0.798588,-0.275562
9961211259,-0.018088,0.789396,-0.255769
9961261650,-0.018047,0.798594,-0.265708
9961312044,-0.008925,0.798582,-0.265700
9961362445,-0.017977,0.789519,-0.265760
9961412836,-0.017882,0.789478,-0.275568
9961463228,-0.008498,0.780311,-0.295233
9961564016,-0.026317,0.780638,-0.335031
9961614411,-0.016817,0.753064,-0.354490
9961664812,-0.007554,0.762256,-0.374316
9961715214,-0.025402,0.734928,-0.394025
9961765611,-0.016084,0.734883,-0.413668
9961816007,-0.006336,0.716613,-0.462910
9961866412,-0.015285,0.707577,-0.472886
9961916813,0.003103,0.698232,-0.482435
9961967207,-0.014645,0.689453,-0.522407
9962017605,-0.014568,0.661875,-0.512235
9962068002,-0.014101,0.652803,-0.551675
9962118393,-0.004886,0.652731,-0.561409
9962168792,-0.004454,0.634503,-0.591035
9962219194,-0.013398,0.625507,-0.601176
9962269590,-0.012645,0.588960,-0.650347
9962319982,-0.021544,0.570676,-0.659976
9962370377,-0.012196,0.552344,-0.669917
9962420766,-0.020850,0.543319,-0.709252
9962471153,-0.011119,0.497503,-0.738653
9962521543,-0.029021,0.479406,-0.758592
9962571933,-0.019579,0.461046,-0.778179
9962622329,-0.028265,0.442880,-0.807829
9962672721,-0.019360,0.442705,-0.787765
9962723110,-0.009812,0.424392,-0.817336
9962773506,-0.028097,0.433774,-0.817872
9962823909,-0.019257,0.442734,-0.797652
9962874313,-0.010302,0.451809,-0.787830
9962924714,-0.019377,0.461088,-0.797858
9962975108,-0.019684,0.461000,-0.768193
9963025504,-0.019847,0.470138,-0.758358
9963075900,-0.028858,0.470267,-0.768429
9963126295,-0.028860,0.470250,-0.768333
9963176698,-0.028855,0.470284,-0.768525
9963227101,-0.010690,0.479255,-0.768212
9963277514,-0.010617,0.470156,-0.768544
9963327913,-0.010994,0.479184,-0.738639
9963378312,-0.019747,0.470150,-0.768150
9963428713,-0.010632,0.470069,-0.768063
9963479114,-0.028802,0.461064,-0.768184
9963529512,-0.019415,0.451907,-0.788016
9963579930,-0.019313,0.451937,-0.797905
9963630337,-0.019188,0.433617,-0.797900
9963680733,-0.028248,0.424496,-0.797733
9963731139,-0.010116,0.424320,-0.787770
9963781537,-0.019191,0.433600,-0.797799
9963831936,-0.019252,0.442768,-0.797852
9963882339,-0.037524,0.433734,-0.788083
9963932738,-0.018925,0.424490,-0.817526
9963983134,-0.018928,0.424474,-0.817423
9964033529,-0.009815,0.424376,-0.817233
9964083922,-0.000527,0.415205,-0.827294
9964134316,-0.027980,0.415404,-0.817560
9964184712,-0.027545,0.397188,-0.847337
9964235106,-0.018309,0.378752,-0.847037
9964285507,0.000092,0.369481,-0.856919
9964335909,-0.008969,0.360363,-0.856736
9964386302,-0.027367,0.369650,-0.846964
9964436696,-0.009465,0.387748,-0.827013
9964487084,-0.009591,0.406069,-0.827014
9964537473,-0.028143,0.424542,-0.807723
9964587869,-0.028536,0.451955,-0.787905
9964638262,-0.019707,0.479348,-0.778090
9964688658,-0.020401,0.506705,-0.728814
9964739058,-0.029782,0.515896,-0.709180
9964789455,-0.030206,0.534181,-0.679792
9964839852,-0.039971,0.570857,-0.640688
9964890244,-0.058656,0.607597,-0.621138
9964940637,-0.068466,0.635036,-0.571935
9964991035,-0.068956,0.662453,-0.542424
9965041426,-0.069447,0.689870,-0.512914
9965091812,-0.088109,0.708238,-0.483412
9965142217,-0.097755,0.726560,-0.444107
9965192612,-0.116355,0.735759,-0.414575
9965243011,-0.107239,0.735699,-0.414535
9965293403,-0.107134,0.735818,-0.424615
9965343797,-0.097712,0.735803,-0.454153
9965394192,-0.097486,0.717517,-0.463992
9965444589,-0.087839,0.699216,-0.503369
9965494983,-0.087576,0.690063,-0.522977
9965545378,-0.078297,0.680842,-0.532727
9965595769,-0.078237,0.671653,-0.532611
9965646165,-0.078173,0.662526,-0.532685
9965696574,-0.078301,0.680778,-0.532538
9965746975,-0.069079,0.680790,-0.542530
9965797366,-0.078399,0.680813,-0.522838
9965847768,-0.078071,0.662556,-0.542576
9965898165,-0.077969,0.662585,-0.552467
9965948557,-0.059371,0.653321,-0.581843
9965998958,-0.086865,0.644276,-0.562069
9966049365,-0.068524,0.644246,-0.572125
9966099762,-0.068463,0.635077,-0.572072
9966150154,-0.068427,0.644214,-0.581807
9966200546,-0.068257,0.635157,-0.591928
9966250937,-0.095769,0.644542,-0.582348
9966301335,-0.077640,0.644328,-0.572212
9966351736,-0.068529,0.644184,-0.571919
9966452522,-0.086758,0.644389,-0.572230
9966502914,-0.086756,0.644410,-0.572299
9966553305,-0.086761,0.644327,-0.572024
9966603696,-0.095446,0.626201,-0.601811
9966654083,-0.067933,0.616838,-0.611462
9966704469,-0.085838,0.598723,-0.631311
9966754860,-0.067241,0.589460,-0.660677
9966805249,-0.057900,0.571070,-0.670374
9966855637,-0.066587,0.552904,-0.700024
9966906023,-0.066442,0.516218,-0.690008
9966956416,-0.056697,0.497911,-0.739087
9967006802,-0.037996,0.488697,-0.778414
9967057190,-0.028802,0.461064,-0.768184
9967107574,-0.037542,0.452117,-0.798179
9967157958,-0.036888,0.415561,-0.837532
9967208337,-0.045948,0.406441,-0.837354
9967258726,-0.036334,0.378991,-0.867103
9967309114,-0.036483,0.369731,-0.847051
9967359517,-0.026836,0.351431,-0.886417
9967409898,-0.027099,0.360556,-0.866800
9967460284,-0.036225,0.360575,-0.866448
9967510666,-0.018152,0.369582,-0.856659
