Timestamp (us),X (a.u.),Y (a.u.),Z (a.u.)
5916042191,-0.559897,-0.053552,-0.667979
5916092024,-0.578052,-0.044496,-0.678213
5916141862,-0.568895,-0.035564,-0.688511
5916191692,-0.559835,-0.044579,-0.678183
5916241520,-0.559903,-0.044641,-0.688632
5916291343,-0.568943,-0.044537,-0.678198
5916341169,-0.568854,-0.035502,-0.678273
5916390989,-0.578079,-0.044558,-0.688345
5916440808,-0.568943,-0.044537,-0.678198
5916490630,-0.578129,-0.053468,-0.668110
5916540453,-0.577950,-0.035397,-0.668260
5916590280,-0.578052,-0.044496,-0.678213
5916640108,-0.568998,-0.044600,-0.688542
5916689929,-0.578246,-0.062567,-0.678168
5916739756,-0.569266,-0.071769,-0.698234
5916789583,-0.578425,-0.080639,-0.678018
5916839411,-0.560391,-0.089946,-0.708415
5916889247,-0.560323,-0.089819,-0.688044
5916939071,-0.560350,-0.089882,-0.698174
5916988898,-0.560123,-0.062839,-0.708640
5917038733,-0.559944,-0.044767,-0.708790
5917088572,-0.559545,-0.008562,-0.698850
5917188228,-0.558588,0.090834,-0.699892
5917238055,-0.549094,0.126995,-0.690042
5917287888,-0.566665,0.181481,-0.659916
5917337724,-0.593187,0.245170,-0.609510
5917387564,-0.592411,0.308727,-0.559288
5917437401,-0.618878,0.372540,-0.488628
5917487247,-0.609192,0.426837,-0.468908
5917537094,-0.618186,0.435987,-0.458835
5917586925,-0.654275,0.445702,-0.377554
5917636770,-0.681498,0.437095,-0.326487
5917686617,-0.699729,0.428351,-0.295935
5917736461,-0.736029,0.419776,-0.244739
5917786310,-0.745024,0.411222,-0.173649
5917836158,-0.781483,0.384721,-0.102139
5917886002,-0.781266,0.385223,-0.021083
5917935846,-0.790342,0.376480,0.019611
5917985688,-0.799390,0.359025,0.111049
5918035532,-0.808483,0.341363,0.172072
5918085370,-0.827281,0.269412,0.213381
5918135205,-0.827853,0.206287,0.234171
5918185044,-0.837708,0.116286,0.285672
5918234881,-0.838226,0.053287,0.326726
5918284721,-0.821078,-0.037403,0.286835
5918334566,-0.821971,-0.127887,0.267223
5918384407,-0.813728,-0.209313,0.257707
5918434253,-0.805358,-0.281700,0.248057
5918484097,-0.788137,-0.363370,0.208097
5918533936,-0.770636,-0.426888,0.178019
5918583778,-0.725736,-0.481429,0.157736
5918633620,-0.707814,-0.508619,0.157781
5918683458,-0.708075,-0.526879,0.127535
5918733294,-0.681088,-0.545380,0.076751
5918783129,-0.681438,-0.572675,0.046584
5918832952,-0.672576,-0.573229,-0.034563
5918882789,-0.663742,-0.591531,-0.064900
5918932627,-0.645831,-0.601089,-0.135929
5918982456,-0.627875,-0.619370,-0.156224
5919032295,-0.646118,-0.601728,-0.237292
5919082138,-0.618882,-0.584336,-0.328859
5919131979,-0.600807,-0.575834,-0.400105
5919181819,-0.582546,-0.558096,-0.440969
5919231654,-0.573429,-0.549281,-0.471459
5919281493,-0.573283,-0.522434,-0.512294
5919331325,-0.555215,-0.522778,-0.553096
5919381166,-0.536720,-0.486843,-0.573847
5919431006,-0.545615,-0.459873,-0.604292
5919480841,-0.536346,-0.433003,-0.635107
5919530690,-0.545213,-0.405972,-0.655410
5919580536,-0.526795,-0.379067,-0.675977
5919630386,-0.526402,-0.334014,-0.696617
5919680230,-0.526085,-0.297992,-0.717070
5919730076,-0.507630,-0.262071,-0.738154
5919779917,-0.516422,-0.226066,-0.768532
5919829760,-0.507161,-0.208040,-0.768891
5919879607,-0.515844,-0.171729,-0.748834
5919929444,-0.515630,-0.144747,-0.769326
5919979284,-0.524456,-0.117598,-0.769461
5920029122,-0.533256,-0.090447,-0.769359
5920078955,-0.533104,-0.072377,-0.769746
5920128790,-0.523843,-0.054409,-0.780000
5920178634,-0.532835,-0.045332,-0.779865
5920228475,-0.523843,-0.054409,-0.780000
5920278313,-0.487191,-0.009773,-0.841657
5920328154,-0.432569,0.016582,-0.923492
5920377999,-0.341493,0.042893,-0.985122
5920427842,-0.295841,0.069606,-1.016343
5920477686,-0.268252,0.105498,-1.037178
5920527526,-0.213736,0.113973,-1.088618
5920577369,-0.150116,0.122403,-1.139992
5920677043,-0.013646,0.139537,-1.192163
5920726884,0.041060,0.166077,-1.243411
5920776724,0.123307,0.210760,-1.265051
5920826566,0.196820,0.291631,-1.286907
5920876412,0.161271,0.373169,-1.276706
5920926259,0.053558,0.509382,-1.246168
5920976105,0.005776,0.301220,-1.335564
5921025954,-0.022852,0.165807,-1.334168
5921075789,-0.278014,0.095187,-1.249973
5921125637,-0.422106,0.249281,-1.280398
5921175478,-0.203870,0.265777,-1.373518
5921225325,-0.158483,0.265386,-1.404575
5921275169,-0.049532,0.264447,-1.476592
5921325022,0.069512,0.345221,-1.478220
5921374863,0.096445,0.317808,-1.508886
5921424706,0.159761,0.290208,-1.539236
5921474555,0.113936,0.263127,-1.569185
5921524399,0.032340,0.281767,-1.538355
5921574246,-0.113992,0.201114,-1.536464
5921624089,-0.140200,0.300812,-1.506167
5921673932,-0.241354,0.183931,-1.483935
5921723775,-0.469640,0.059290,-1.349114
5921773622,-0.677769,0.150983,-1.286989
5921823471,-0.550228,0.186163,-1.349151
5921873319,-0.477921,0.149502,-1.380175
5921923168,-0.414321,0.149088,-1.401283
5921973028,-0.269103,0.130033,-1.453034
5922022878,-0.214120,0.166052,-1.433608
5922072731,-0.168549,0.174876,-1.433921
5922122576,-0.286351,0.194050,-1.341509
5922172422,-0.294022,0.347522,-1.373497
5922222276,-0.341665,0.122024,-1.340969
5922272125,-0.478631,0.041886,-1.247351
5922321970,-0.705257,0.071100,-1.072914
5922371818,-0.768750,0.089530,-1.062624
5922421671,-0.687369,0.061610,-1.134316
5922471515,-0.588136,-0.002604,-1.215497
5922521357,-0.432832,0.086540,-1.298643
5922571203,-0.332478,0.122168,-1.310458
5922621054,-0.331823,0.176630,-1.270184
5922670907,-0.540488,0.196480,-1.136714
5922720759,-0.531179,0.223348,-1.167079
5922770624,-0.559706,0.079344,-1.094694
5922820478,-0.743047,-0.108565,-0.929224
5922870325,-0.753170,-0.225672,-0.877505
5922920171,-0.762460,-0.261395,-0.816331
5922970016,-0.798874,-0.278928,-0.755153
5923019865,-0.771930,-0.315190,-0.755007
5923069715,-0.744537,-0.315064,-0.714755
5923119569,-0.771060,-0.242474,-0.684906
5923169421,-0.816248,-0.232731,-0.603557
5923219270,-0.816086,-0.232354,-0.542747
5923269116,-0.806497,-0.187150,-0.532993
5923318972,-0.806122,-0.142098,-0.553723
5923368819,-0.733909,-0.170228,-0.665601
5923418665,-0.625141,-0.180451,-0.777957
5923468509,-0.567199,0.144895,-0.730427
5923518356,-0.390473,0.550539,-0.766145
5923568197,-0.521323,0.198659,-0.772088
5923618036,-0.595751,0.018524,-0.729219
5923667874,-0.650119,0.019277,-0.647722
5923717721,-0.732260,-0.025151,-0.585733
5923767560,-0.715180,-0.142575,-0.564671
5923817410,-0.742347,-0.142138,-0.513815
5923867249,-0.769113,-0.096706,-0.493571
5923917089,-0.778155,-0.078844,-0.534249
5923966929,-0.786678,-0.015676,-0.554954
5924016775,-0.776384,0.119443,-0.616884
5924066617,-0.747864,0.254606,-0.658814
5924116459,-0.757417,0.218321,-0.688931
5924166306,-0.775803,0.182636,-0.627641
5924216155,-0.857210,0.201711,-0.525629
5924266003,-0.848157,0.201471,-0.555949
5924315841,-0.894672,0.093379,-0.534418
5924365678,-0.904021,0.075226,-0.554532
5924415512,-0.877433,0.038074,-0.696176
5924465354,-0.832232,0.046151,-0.818538
5924515197,-0.750799,0.035922,-0.950885
5924565038,-0.714877,0.008208,-1.021955
5924614883,-0.695944,0.098173,-1.073717
5924664725,-0.650272,0.133732,-1.135278
5924714570,-0.594636,0.241773,-1.156467
5924764406,-0.675008,0.369218,-1.065692
5924814253,-0.692873,0.405462,-1.066133
5924864091,-0.795650,0.117080,-1.012064
5924913934,-0.905655,-0.016894,-0.837433
5924963768,-1.068436,0.021382,-0.613268
5925013598,-1.013836,0.056458,-0.745749
5925063427,-0.996291,0.001908,-0.786013
5925113263,-0.969204,-0.007504,-0.826743
5925163093,-0.897030,-0.035636,-0.938851
5925212932,-0.851903,-0.054356,-1.009944
5925262768,-0.760954,-0.037077,-1.071959
5925312599,-0.751536,-0.009885,-1.052005
5925362433,-0.797368,-0.072301,-0.949678
5925412267,-0.841143,0.099593,-0.950653
5925462106,-0.851084,-0.017144,-0.837974
5925511944,-0.943151,-0.169396,-0.683793
5925561780,-1.006853,-0.204554,-0.571302
5925611620,-0.916074,-0.161176,-0.795607
5925661449,-0.834167,-0.143732,-0.837232
5925761114,-0.670639,-0.118501,-1.021201
5925810948,-0.607441,-0.155186,-1.062060
5925860785,-0.588618,-0.083111,-1.083433
5925910622,-0.588687,-0.100992,-1.052559
5925960464,-0.743323,-0.153306,-0.858066
5926010302,-0.740879,0.108419,-0.911042
5926060139,-0.859878,-0.034107,-0.665360
5926109965,-0.951522,-0.141240,-0.521708
5926159790,-0.987657,-0.140508,-0.430159
5926209623,-1.005339,-0.121538,-0.298463
5926259454,-1.032648,-0.147955,-0.206766
5926309286,-1.023251,-0.138520,-0.135969
5926359117,-1.032063,-0.128941,-0.054913
5926408948,-1.013675,-0.119737,-0.014634
5926458784,-0.995260,-0.110471,0.035778
5926508623,-0.986029,-0.110198,0.086355
5926558458,-0.985848,-0.100849,0.136972
5926608291,-0.967492,-0.091770,0.156974
5926658126,-0.949207,-0.100512,0.217655
5926707966,-0.940201,-0.109589,0.217640
5926757798,-0.921936,-0.109547,0.237700
5926807622,-0.912780,-0.109400,0.268037
5926857457,-0.894659,-0.118519,0.267901
5926907292,-0.903817,-0.127450,0.278198
5926957131,-0.903837,-0.127451,0.278230
5927006962,-0.903790,-0.127387,0.288330
5927056803,-0.903817,-0.127450,0.278198
5927106647,-0.903790,-0.127387,0.288330
5927156483,-0.922261,-0.145565,0.258294
5927206326,-0.931377,-0.145525,0.258413
5927256164,-0.931445,-0.154559,0.258459
5927306009,-0.922488,-0.172669,0.258460
5927355847,-0.922194,-0.154286,0.309000
5927405686,-0.922523,-0.172612,0.268683
5927455533,-0.913505,-0.190535,0.299113
5927505375,-0.922475,-0.172547,0.278786
5927555212,-0.904168,-0.163532,0.288664
5927605047,-0.904444,-0.190700,0.278723
5927654884,-0.922962,-0.217910,0.248705
5927704722,-0.923087,-0.226891,0.258999
5927754559,-0.932395,-0.245044,0.238943
