Timestamp (us),X (a.u.),Y (a.u.),Z (a.u.)
10136177674,-1.121606,-0.429548,0.102533
10136227817,-1.121502,-0.420192,0.112750
10136277955,-1.112286,-0.429587,0.102497
10136328097,-1.121530,-0.420240,0.102535
10136378226,-1.121378,-0.410920,0.082332
10136428361,-1.130746,-0.410845,0.112791
10136478495,-1.121518,-0.420256,0.092384
10136528630,-1.112093,-0.410939,0.102569
10136578769,-1.112210,-0.420306,0.092323
10136628896,-1.121403,-0.410915,0.092456
10136679028,-1.112185,-0.420284,0.092372
10136729161,-1.121515,-0.420203,0.112729
10136779291,-1.121288,-0.401601,0.082354
10136829432,-1.102724,-0.410988,0.082286
10136879567,-1.112057,-0.410959,0.082296
10136929703,-1.102968,-0.429680,0.082113
10136979839,-1.112057,-0.410959,0.082296
10137029980,-1.112095,-0.410965,0.092395
10137080120,-1.102761,-0.410994,0.092383
10137130272,-1.121377,-0.410893,0.092505
10137180418,-1.121572,-0.429594,0.072089
10137230556,-1.112093,-0.410939,0.102569
10137280699,-1.112276,-0.429629,0.082175
10137330837,-1.112209,-0.420280,0.102498
10137380963,-1.112220,-0.420264,0.112649
10137431096,-1.112003,-0.401620,0.102593
10137481236,-1.112263,-0.429618,0.082201
10137531377,-1.121494,-0.420260,0.082259
10137581521,-1.112199,-0.420321,0.082171
10137631656,-1.121286,-0.401549,0.102699
10137681789,-1.121391,-0.410931,0.082307
10137731926,-1.112082,-0.410954,0.092420
10137782057,-1.121481,-0.420249,0.082285
10137832194,-1.130824,-0.420179,0.102617
10137882326,-1.112057,-0.410959,0.082296
10137932458,-1.121517,-0.420229,0.102558
10137982595,-1.112056,-0.410933,0.092468
10138032728,-1.121287,-0.401575,0.092528
10138082867,-1.121263,-0.401580,0.082405
10138133002,-1.121310,-0.401544,0.112823
10138183139,-1.130644,-0.401515,0.112838
10138233265,-1.121207,-0.392214,0.112871
10138283388,-1.121324,-0.401581,0.102630
10138333518,-1.130402,-0.382877,0.092659
10138383645,-1.130369,-0.382949,0.052037
10138433776,-1.130223,-0.373707,0.001302
10138483916,-1.139554,-0.383121,-0.079914
10138534043,-1.129972,-0.364604,-0.140815
10138584171,-1.129192,-0.308792,-0.262210
10138634297,-1.119164,-0.252977,-0.343156
10138684423,-1.108917,-0.178497,-0.423913
10138734551,-1.098207,-0.057370,-0.494573
10138784673,-1.077842,0.091737,-0.554679
10138834798,-1.058049,0.194238,-0.584792
10138884927,-1.039179,0.212833,-0.574278
10138935059,-1.038745,0.250119,-0.594382
10138985187,-1.038597,0.268813,-0.574334
10139035322,-1.047770,0.287603,-0.513194
10139085449,-1.066605,0.269021,-0.513111
10139135576,-1.075767,0.287768,-0.482637
10139185707,-1.084928,0.306541,-0.431665
10139235838,-1.084473,0.353254,-0.390926
10139285965,-1.112058,0.390748,-0.349946
10139336104,-1.092689,0.465419,-0.278678
10139386241,-1.082899,0.512108,-0.217449
10139436369,-1.082696,0.540218,-0.146394
10139486500,-1.091812,0.568394,-0.044680
10139536629,-1.101372,0.559298,0.087257
10139586770,-1.120654,0.512891,0.188546
10139636904,-1.121580,0.438384,0.269348
10139687042,-1.150820,0.326608,0.309485
10139737175,-1.161614,0.196064,0.329162
10139787311,-1.172047,0.093494,0.338810
10139837450,-1.163949,-0.018533,0.317914
10139887591,-1.165055,-0.121190,0.297093
10139937723,-1.156703,-0.214603,0.245836
10139987862,-1.157649,-0.308008,0.174317
10140038000,-1.139735,-0.382822,0.102843
10140088137,-1.112423,-0.448366,0.031334
10140138274,-1.094269,-0.504537,-0.060277
10140188419,-1.038722,-0.542222,-0.121722
10140238561,-1.001702,-0.579812,-0.223364
10140288705,-0.974092,-0.617355,-0.284616
10140338850,-0.964463,-0.598874,-0.375889
10140388985,-0.954744,-0.571020,-0.446722
10140439123,-0.972093,-0.459122,-0.517317
10140489260,-0.998506,-0.328494,-0.597505
10140539405,-0.987300,-0.160718,-0.657940
10140589543,-0.985716,-0.020813,-0.687551
10140639684,-0.984395,0.100504,-0.666510
10140689817,-0.992792,0.184509,-0.666046
10140739955,-0.992485,0.212512,-0.655632
10140790095,-1.001336,0.259232,-0.635309
10140840228,-1.010441,0.277929,-0.635056
10140890364,-1.010168,0.305977,-0.594205
10140940495,-1.000243,0.361916,-0.594073
10140990635,-0.990170,0.427148,-0.613954
10141040765,-0.961717,0.473697,-0.603796
10141090888,-0.942652,0.510911,-0.624095
10141141017,-0.905018,0.538690,-0.654421
10141191149,-0.858053,0.566412,-0.694922
10141241277,-0.802038,0.566053,-0.776311
10141291401,-0.736840,0.556370,-0.827345
10141341533,-0.662103,0.565291,-0.898927
10141391670,-0.634216,0.555805,-0.919222
10141441811,-0.624687,0.574418,-0.919004
10141491942,-0.652436,0.602655,-0.837729
10141542084,-0.764192,0.621940,-0.725305
10141592215,-0.829483,0.622278,-0.694875
10141642355,-0.895162,0.594736,-0.583137
10141692498,-0.998249,0.558052,-0.451006
10141742636,-1.045127,0.549142,-0.308880
10141792773,-1.092015,0.530806,-0.217318
10141842907,-1.092096,0.530906,-0.156497
10141893047,-1.101406,0.530921,-0.176817
10141943181,-1.120207,0.512278,-0.217437
10141993310,-1.082682,0.521274,-0.329095
10142043449,-1.035725,0.539535,-0.461104
10142143734,-0.867652,0.538415,-0.735884
10142193880,-0.792964,0.537939,-0.837518
10142294163,-0.755818,0.528499,-0.807267
10142344307,-0.765145,0.528544,-0.807375
10142394446,-0.802547,0.519397,-0.786837
10142444588,-0.877412,0.501186,-0.695181
10142494716,-0.942698,0.510973,-0.583498
10142544860,-1.026735,0.511528,-0.451232
10142595000,-1.073386,0.521247,-0.329293
10142645145,-1.092084,0.521421,-0.258023
10142695298,-1.110587,0.540261,-0.186758
10142745445,-1.119999,0.530955,-0.196916
10142795579,-1.120057,0.521555,-0.247767
10142845709,-1.101540,0.502709,-0.318969
10142895845,-1.063971,0.511643,-0.471185
10142945969,-0.989209,0.520496,-0.593651
10143046233,-0.905465,0.491959,-0.705267
10143096365,-0.915031,0.473382,-0.685289
10143146494,-0.905674,0.473286,-0.726056
10143196634,-0.905453,0.491944,-0.715413
10143246768,-0.933377,0.501465,-0.674925
10143296908,-0.980392,0.473812,-0.583543
10143347044,-1.008310,0.483357,-0.512131
10143447325,-1.073658,0.493230,-0.339421
10143497467,-1.111007,0.493500,-0.257950
10143547610,-1.129767,0.493704,-0.187047
10143597749,-1.129757,0.503158,-0.105806
10143647893,-1.129607,0.521904,-0.044772
10143698034,-1.129733,0.512605,-0.024524
10143748169,-1.120468,0.512653,0.036360
10143798303,-1.120298,0.531358,0.066894
10143848439,-1.129666,0.531450,0.097346
10143898573,-1.120404,0.531479,0.137883
10143948705,-1.111147,0.522091,0.137855
10143998832,-1.092486,0.531441,0.198691
10144048960,-1.092624,0.522149,0.218929
10144099097,-1.092544,0.531509,0.239272
10144149227,-1.083325,0.522150,0.249340
10144199363,-1.064833,0.512803,0.289806
10144249490,-1.064844,0.512828,0.310095
10144299612,-1.065132,0.494240,0.340469
10144349738,-1.065588,0.456993,0.391017
10144399865,-1.066146,0.410418,0.441505
10144449990,-1.057727,0.335851,0.512124
10144500122,-1.077521,0.233322,0.521855
10144550242,-1.078763,0.121399,0.541549
10144600366,-1.098946,-0.018502,0.520678
10144650494,-1.100471,-0.167891,0.438671
10144700627,-1.101552,-0.280022,0.316321
10144750759,-1.102761,-0.401499,0.193934
10144800892,-1.084881,-0.485732,0.061540
10144851020,-1.066730,-0.541956,-0.050429
10144901154,-1.048613,-0.598224,-0.162573
10144951292,-0.992664,-0.607960,-0.274494
10145001423,-0.973876,-0.608150,-0.375813
10145051555,-0.936502,-0.608431,-0.457130
10145101678,-0.871247,-0.618191,-0.558897
10145151810,-0.824564,-0.618496,-0.630104
10145201944,-0.749567,-0.591037,-0.752283
10145252085,-0.655601,-0.535625,-0.873999
10145302217,-0.617654,-0.479855,-0.914292
10145352342,-0.608025,-0.451907,-0.914186
10145402470,-0.654602,-0.442311,-0.853378
10145452606,-0.793998,-0.394923,-0.761117
10145502730,-0.859425,-0.403868,-0.689875
10145552860,-0.878716,-0.459720,-0.659644
10145602983,-0.841810,-0.497241,-0.690422
10145653113,-0.767117,-0.497686,-0.791907
10145703243,-0.645193,-0.442435,-0.924140
10145753378,-0.551849,-0.433535,-0.954731
10145803511,-0.552401,-0.480158,-0.924852
10145853643,-0.664569,-0.498190,-0.823033
10145903775,-0.757662,-0.479014,-0.741393
10145953915,-0.850617,-0.450555,-0.690149
10146004062,-0.869125,-0.441166,-0.710194
10146104357,-0.710573,-0.451443,-0.893495
10146154502,-0.589213,-0.442749,-0.975090
10146204647,-0.570572,-0.442828,-0.975163
10146254793,-0.645334,-0.451730,-0.893904
10146304939,-0.729283,-0.451271,-0.832543
10146355081,-0.831801,-0.441424,-0.761347
10146405231,-0.887640,-0.431789,-0.730367
10146455372,-0.887215,-0.394514,-0.750607
10146505514,-0.831085,-0.385560,-0.842108
10146605781,-0.607784,-0.433344,-0.955169
10146655923,-0.635873,-0.442525,-0.934806
10146706058,-0.710511,-0.442040,-0.852711
10146756195,-0.813491,-0.469393,-0.720567
10146806325,-0.906929,-0.478199,-0.619039
10146856462,-0.953559,-0.477916,-0.578039
10146906599,-0.953155,-0.440665,-0.598488
10146956733,-0.934450,-0.440756,-0.628647
10147006871,-0.944097,-0.459286,-0.547873
10147056999,-1.009367,-0.449484,-0.425688
10147107140,-1.056221,-0.458388,-0.283409
10147157279,-1.084663,-0.486026,-0.131244
10147207422,-1.075629,-0.495147,0.031017
10147257558,-1.066434,-0.504484,0.051226
10147307694,-1.057456,-0.532465,0.081488
10147357823,-1.048330,-0.551178,0.071210
10147407958,-1.039351,-0.579189,0.091300
10147458091,-1.029997,-0.579216,0.081167
10147508228,-1.066651,-0.523127,0.061278
10147558365,-1.093805,-0.448413,0.051560
10147608509,-1.112230,-0.429691,0.041578
10147658649,-1.130344,-0.392423,-0.049459
10147708789,-1.111117,-0.364833,-0.272497
10147758927,-1.036073,-0.346887,-0.526429
10147809063,-0.905012,-0.319830,-0.770451
10147859208,-0.728176,-0.358087,-0.903094
10147909352,-0.569936,-0.386893,-0.995340
10147959487,-0.476797,-0.396652,-1.026021
10148009620,-0.505352,-0.443072,-0.955123
10148059750,-0.618270,-0.526362,-0.823211
10148109894,-0.720972,-0.535179,-0.762119
10148160030,-0.822492,-0.441382,-0.730534
10148210156,-0.868178,-0.357234,-0.730060
10148260286,-0.848313,-0.254838,-0.821075
10148310416,-0.755196,-0.274012,-0.912547
10148360551,-0.625244,-0.330680,-0.994838
10148410696,-0.523103,-0.368452,-1.015551
10148460830,-0.514100,-0.396453,-1.005412
10148510961,-0.589019,-0.424075,-0.964849
10148561097,-0.691973,-0.451448,-0.852831
10148611232,-0.804057,-0.460119,-0.730701
10148661367,-0.887906,-0.450343,-0.669457
10148711503,-0.934026,-0.403481,-0.648871
10148761650,-0.924329,-0.375625,-0.709644
10148811788,-0.803030,-0.376296,-0.821581
10148861930,-0.663415,-0.405018,-0.923559
10148912065,-0.561284,-0.442809,-0.944597
10148962198,-0.608045,-0.451864,-0.893737
10149062460,-0.775995,-0.450947,-0.741178
10149112604,-0.878597,-0.450367,-0.659348
10149162744,-0.934340,-0.431388,-0.618217
10149212889,-0.915271,-0.394246,-0.659042
10149263035,-0.896413,-0.385150,-0.760533
10149313175,-0.756542,-0.395275,-0.903019
10149363319,-0.644831,-0.414487,-0.964254
10149413462,-0.635983,-0.451828,-0.924543
10149463601,-0.692291,-0.479460,-0.853273
10149513741,-0.766816,-0.469711,-0.791907
10149563881,-0.850594,-0.450520,-0.689763
10149614019,-0.934392,-0.431391,-0.598281
10149664156,-0.971662,-0.431249,-0.608282
10149714290,-0.934003,-0.403512,-0.669164
10149764422,-0.840642,-0.404096,-0.801288
10149814552,-0.710134,-0.414146,-0.913440
10149864695,-0.635876,-0.442486,-0.924336
10149914829,-0.636447,-0.489004,-0.863232
10149964972,-0.701732,-0.488707,-0.832841
10150015106,-0.776085,-0.460253,-0.740955
10150065245,-0.860056,-0.459802,-0.669739
10150115382,-0.897412,-0.459497,-0.588191
10150165518,-0.916212,-0.468670,-0.537447
10150215650,-0.879073,-0.487619,-0.608929
10150265787,-0.831934,-0.450668,-0.720532
10150315925,-0.710516,-0.442052,-0.852861
10150366058,-0.626248,-0.414489,-0.913607
10150416202,-0.626351,-0.423818,-0.913655
10150466332,-0.626073,-0.395821,-0.893536
10150516472,-0.709924,-0.386045,-0.832283
10150566618,-0.793909,-0.385515,-0.730224
10150616760,-0.906245,-0.412846,-0.588263
10150666898,-0.971825,-0.430979,-0.445745
10150717036,-1.037432,-0.449145,-0.303573
10150767171,-1.056199,-0.448896,-0.191918
10150817307,-1.075375,-0.485935,-0.070263
10150867443,-1.047941,-0.523214,0.030863
10150917579,-1.029712,-0.551197,0.101600
10150967714,-1.029655,-0.541778,0.152390
10151017852,-1.029336,-0.513778,0.152548
10151067989,-1.047703,-0.485694,0.173035
10151118123,-1.056647,-0.448320,0.193538
10151168260,-1.075220,-0.438865,0.224093
10151218396,-1.056306,-0.410910,0.254599
10151268537,-1.065237,-0.373447,0.305539
10151318672,-1.055485,-0.326760,0.366599
10151368803,-1.064223,-0.270678,0.407472
10151418937,-1.035523,-0.196103,0.458498
10151469061,-1.034748,-0.121389,0.509565
10151519187,-1.043601,-0.074644,0.550409
10151569318,-1.024277,-0.009374,0.581096
10151619454,-1.023160,0.093257,0.591761
10151669582,-1.003494,0.186451,0.582061
10151719709,-0.983691,0.288958,0.562185
10151769838,-0.973322,0.382175,0.542338
10151819979,-0.953506,0.484642,0.492104
10151870110,-0.943079,0.577783,0.421535
10151920241,-0.923672,0.642939,0.371088
10151970369,-0.913533,0.708069,0.290221
10152020500,-0.894156,0.763804,0.199160
10152120748,-0.884100,0.819574,0.077661
10152170877,-0.874731,0.819469,0.026872
10152221000,-0.874850,0.800695,-0.034011
10152271121,-0.884181,0.791282,-0.115162
10152321246,-0.884212,0.781856,-0.186269
10152371369,-0.912686,0.725866,-0.267523
10152421493,-0.931679,0.688552,-0.318353
10152471622,-0.932126,0.641823,-0.369217
10152521751,-0.932488,0.604439,-0.420205
10152571876,-0.942151,0.567079,-0.470972
10152621999,-0.942516,0.529702,-0.511726
10152672127,-0.942696,0.511005,-0.542354
10152722249,-0.933549,0.492271,-0.562658
10152772376,-0.924307,0.482862,-0.593281
10152822508,-0.924421,0.473549,-0.583186
10152872632,-0.914902,0.492163,-0.593502
