Timestamp (us),X (a.u.),Y (a.u.),Z (a.u.)
804474989,-0.493502,0.632053,-0.888099
804525477,-0.502744,0.604310,-0.897609
804575965,-0.493640,0.595447,-0.887696
804626462,-0.502741,0.594984,-0.907401
804676946,-0.493490,0.604066,-0.917343
804727442,-0.502710,0.613462,-0.897710
804777934,-0.502672,0.613287,-0.907603
804828429,-0.493499,0.622727,-0.897891
804878926,-0.502670,0.613279,-0.907472
804929421,-0.493495,0.613400,-0.907683
804979916,-0.502673,0.622605,-0.897682
805030406,-0.502675,0.622613,-0.897811
805080895,-0.493530,0.604248,-0.907582
805131381,-0.502706,0.613446,-0.897452
805181874,-0.493492,0.622695,-0.897376
805282870,-0.502599,0.631574,-0.907544
805333355,-0.511918,0.613500,-0.887355
805383839,-0.502635,0.631741,-0.897525
805434334,-0.502740,0.613606,-0.887308
805484822,-0.493495,0.622711,-0.897633
805535306,-0.511851,0.631810,-0.887684
805585790,-0.521024,0.622371,-0.897393
805636271,-0.511925,0.622842,-0.877819
805686766,-0.521072,0.631897,-0.878092
805737251,-0.520959,0.640690,-0.897852
805787740,-0.511822,0.640987,-0.888167
805838240,-0.521043,0.650384,-0.868524
805888733,-0.511789,0.659456,-0.878349
805939220,-0.493410,0.687497,-0.859150
805989706,-0.484238,0.706254,-0.839523
806040191,-0.493424,0.734121,-0.810067
806090681,-0.456546,0.780343,-0.811008
806141175,-0.419812,0.706171,-0.889547
806191661,-0.410654,0.650491,-0.938350
806292647,-0.475114,0.641431,-0.888360
806343136,-0.548769,0.799942,-0.671699
806393631,-0.659084,0.808797,-0.611580
806444122,-0.806624,0.689241,-0.539739
806494621,-1.010115,0.526575,-0.278953
806545122,-1.149077,0.326165,-0.127123
806595613,-1.167731,0.131659,-0.243615
806646113,-1.122725,-0.189473,-0.319541
806696611,-1.022392,-0.427575,-0.396990
806747110,-0.893939,-0.584193,-0.544787
806797612,-0.764668,-0.576943,-0.743752
806848113,-0.653398,-0.431976,-0.904718
806898609,-0.615728,-0.249700,-0.976021
806949117,-0.605360,0.024253,-1.018539
806999616,-0.650719,0.244712,-0.941587
807050116,-0.724083,0.327392,-0.872625
807100614,-0.751459,0.428766,-0.814155
807201612,-0.741898,0.622630,-0.727344
807252104,-0.649750,0.724415,-0.729149
807302596,-0.511810,0.836462,-0.701996
807353090,-0.337294,1.014778,-0.576948
807403586,-0.135540,1.138824,-0.431529
807454085,0.047831,1.188458,-0.344738
807504587,0.157993,1.170989,-0.375171
807555077,0.157637,1.219197,-0.237198
807605576,0.074686,1.257037,-0.108279
807656076,0.019364,1.257583,-0.038570
807706570,-0.127953,1.258025,0.091267
807757056,-0.311533,1.209502,0.063716
807807545,-0.569110,1.106875,0.136279
807858032,-0.864081,0.848643,0.230753
807959003,-1.196105,0.191303,0.042938
808009493,-1.195859,0.199406,-0.016507
808059982,-1.185921,0.289107,-0.126399
808110481,-1.120875,0.453749,-0.178231
808160976,-1.028584,0.675914,-0.102322
808211467,-0.918003,0.833385,-0.075337
808312458,-0.707381,1.033581,0.227344
808413455,-0.597613,1.073801,0.354517
808463960,-0.533338,1.074399,0.344019
808514464,-0.541960,1.099658,0.225166
808564963,-0.624129,1.078081,0.097533
808615452,-0.752711,0.983915,0.040311
808665946,-0.927489,0.806841,-0.015590
808716441,-1.103024,0.484230,-0.020434
808766941,-1.205091,0.078575,-0.114009
808817444,-1.159469,-0.189751,-0.309330
808867942,-1.168345,-0.079522,-0.280786
808918445,-1.149571,0.011868,-0.301737
808968948,-1.148824,0.250503,-0.264794
809019461,-1.083972,0.537089,-0.149786
809069959,-1.009979,0.712221,-0.132560
809120456,-0.899750,0.852762,-0.026224
809170955,-0.798551,0.973847,0.021033
809221459,-0.761663,0.992078,-0.009159
809271962,-0.752422,1.001184,-0.019234
809322462,-0.770617,0.981604,-0.078219
809372958,-0.834984,0.925554,-0.096836
809423448,-0.908936,0.852662,-0.026150
809473942,-1.028704,0.695092,-0.053068
809524439,-1.148886,0.427706,-0.078776
809574930,-1.214409,0.069659,-0.094082
809625427,-1.178420,-0.187364,-0.160854
809675920,-1.196287,-0.087263,-0.181532
809726425,-1.195838,0.031705,-0.182843
809776920,-1.213529,0.251814,-0.145562
809827416,-1.158054,0.446239,-0.059104
809877907,-1.102606,0.584720,-0.031435
809928406,-1.047290,0.714569,0.026020
809978902,-0.964268,0.843896,0.033782
810029395,-0.853293,0.934463,-0.096761
810079897,-0.807130,0.970950,-0.137145
810130405,-0.807043,0.961257,-0.166693
810180903,-0.807057,0.933325,-0.196148
810231406,-0.871502,0.877622,-0.194982
810281907,-0.982161,0.748466,-0.172768
810332414,-1.083971,0.564910,-0.130347
810382919,-1.195176,0.233558,-0.155363
810433417,-1.205781,-0.085980,-0.102340
810534432,-1.205650,-0.030720,-0.083160
810584930,-1.196147,0.116868,-0.025498
810635430,-1.204828,0.254201,-0.017032
810685935,-1.185853,0.372525,-0.067972
810736433,-1.148837,0.418040,-0.108385
810786934,-1.130237,0.445184,-0.138485
810837433,-1.130066,0.453642,-0.178179
810887945,-1.130059,0.434989,-0.197763
810938445,-1.120903,0.425945,-0.197711
810988943,-1.130079,0.425831,-0.197631
811039442,-1.130042,0.425656,-0.207522
811089949,-1.120730,0.443885,-0.217628
811190950,-1.111791,0.463545,-0.148762
811241451,-1.093468,0.510412,-0.099980
811291958,-1.102765,0.538955,-0.030924
811342453,-1.084391,0.548341,-0.031192
811392952,-1.066099,0.576731,0.007909
811443452,-1.066095,0.604701,0.037282
811493950,-1.056799,0.622932,0.027107
811544440,-1.038334,0.659785,0.026547
811594943,-1.029085,0.668874,0.016473
811645437,-1.010480,0.705182,-0.013768
811695942,-0.982608,0.731914,-0.073654
811746430,-0.945479,0.786237,-0.133948
811796930,-0.889944,0.831273,-0.214074
811847429,-0.834431,0.857818,-0.303846
811897923,-0.788264,0.884977,-0.354057
811948428,-0.751224,0.902507,-0.423827
811998925,-0.677401,0.920140,-0.513703
812049417,-0.585225,0.956623,-0.583988
812099913,-0.474933,0.985116,-0.605205
812150405,-0.383060,1.004344,-0.615924
812200898,-0.272779,1.070111,-0.597811
812251398,-0.190277,1.108803,-0.539673
812301901,-0.135412,1.138355,-0.461393
812352397,-0.098753,1.166964,-0.422445
812402897,-0.043624,1.185946,-0.423127
812453433,0.002341,1.167508,-0.462897
812503899,0.048036,1.168950,-0.413834
812554398,0.084852,1.178204,-0.434041
812604907,0.094102,1.159295,-0.473422
812655405,0.075732,1.149955,-0.473296
812705905,0.020348,1.187964,-0.354440
812756411,-0.053343,1.225590,-0.245383
812806911,-0.190605,1.184815,-0.382220
812857406,-0.429172,1.014171,-0.546474
812907904,-0.677488,0.752950,-0.650291
812958399,-0.834267,0.559036,-0.637105
813008890,-0.834002,0.688201,-0.579069
813059390,-0.677247,0.695951,-0.768492
813109897,-0.594767,0.688168,-0.749326
813160395,-0.557890,0.864750,-0.622779
813210897,-0.475012,0.892361,-0.673348
813261392,-0.438307,0.892828,-0.673765
813311894,-0.383126,0.976731,-0.625601
813362395,-0.272605,1.013469,-0.696204
813412891,-0.153223,1.005296,-0.727025
813463386,-0.079935,1.044034,-0.658811
813513881,0.020836,1.148344,-0.522062
813564378,0.048247,1.186533,-0.453542
813614878,0.057424,1.186646,-0.453622
813715869,-0.346269,1.088243,-0.557972
813766364,-0.667821,0.862530,-0.671364
813816860,-0.824836,0.585904,-0.677064
813867356,-0.898359,0.678617,-0.558703
813917860,-0.842860,0.640054,-0.707089
813968359,-0.787890,0.594618,-0.726746
814018854,-0.741764,0.761659,-0.630049
814069353,-0.668043,0.835613,-0.641480
814119848,-0.603615,0.826204,-0.701296
814170343,-0.530146,0.882719,-0.662971
814220849,-0.474732,0.946949,-0.693935
814271347,-0.318387,0.947283,-0.784231
814321845,-0.189871,0.920699,-0.824502
814372334,-0.107240,0.940224,-0.815766
814422826,-0.052186,0.959557,-0.796660
814473324,-0.052322,1.025370,-0.698426
814523816,-0.162686,1.109058,-0.550198
814574317,-0.263592,1.079638,-0.588523
814624813,-0.465693,0.910455,-0.693612
814675307,-0.760332,0.650602,-0.688424
814725803,-0.889602,0.531616,-0.596920
814776298,-0.889423,0.586696,-0.587543
814826786,-0.824906,0.548954,-0.696550
814877287,-0.788225,0.624023,-0.618513
814927782,-0.723594,0.799928,-0.551722
814978288,-0.613105,0.836843,-0.612459
815028799,-0.576114,0.891857,-0.633176
815079301,-0.511831,0.976258,-0.565457
815129795,-0.392157,0.994617,-0.645782
815180288,-0.235853,0.920714,-0.794882
815230784,-0.079759,0.903634,-0.835630
815281279,0.021137,0.923695,-0.806907
815331779,0.057910,0.979775,-0.768360
815382277,0.002615,0.970804,-0.718192
815432773,-0.080108,1.054288,-0.599805
815483270,-0.236336,1.118531,-0.480370
815533773,-0.475129,0.995366,-0.546186
815584267,-0.760486,0.697919,-0.599683
815634767,-0.862308,0.803133,-0.273449
815685261,-0.806580,0.819327,-0.432521
815735765,-0.733321,0.858229,-0.354339
815786265,-0.678202,1.035579,-0.198379
815836773,-0.576795,1.099873,-0.259406
815887281,-0.447712,1.107964,-0.409022
815937787,-0.291167,1.088783,-0.568509
815988293,-0.125584,1.005095,-0.756840
816038798,0.002898,0.894948,-0.865693
816089305,0.076276,0.812274,-0.934818
816139813,0.149586,0.748612,-0.964714
816190313,0.186219,0.749415,-0.945238
816240813,0.149571,0.757929,-0.954780
816291311,0.067011,0.766062,-0.954160
816341814,-0.089093,0.811124,-0.884025
816392315,-0.272769,0.865348,-0.793957
816442817,-0.493671,0.893563,-0.594229
816493316,-0.741873,0.780709,-0.591027
816543818,-0.917134,0.745453,-0.391166
816594321,-0.843001,0.752358,-0.570050
816644827,-0.732666,0.715521,-0.659584
816695327,-0.723298,0.798539,-0.630977
816745823,-0.658732,0.825749,-0.691320
816796315,-0.566737,0.825854,-0.751727
816846812,-0.539059,0.862766,-0.752047
816897316,-0.502325,0.797916,-0.820821
816947805,-0.474818,0.751817,-0.860386
816998296,-0.484170,0.715260,-0.849882
817048790,-0.530239,0.603803,-0.907392
817099278,-0.585545,0.529747,-0.916262
817149769,-0.631605,0.464776,-0.935218
817200253,-0.677838,0.400661,-0.904152
817250747,-0.723893,0.345007,-0.913043
817301241,-0.751635,0.299082,-0.902402
817351737,-0.779587,0.226226,-0.861643
817402237,-0.816666,0.162234,-0.831171
817503227,-0.844331,0.134614,-0.820611
817553720,-0.835148,0.116073,-0.840283
817604213,-0.825975,0.106857,-0.850282
817654710,-0.798294,0.134480,-0.860599
817705212,-0.779957,0.116230,-0.870202
817755721,-0.743215,0.125835,-0.870624
817806219,-0.743212,0.116508,-0.880417
817856714,-0.733978,0.134922,-0.880953
817907212,-0.724823,0.125886,-0.880678
817957710,-0.734145,0.107820,-0.860608
818008211,-0.752454,0.107420,-0.870216
818058708,-0.761462,0.143737,-0.880559
818109204,-0.733903,0.153227,-0.881028
818159700,-0.724584,0.180621,-0.891306
818210203,-0.715335,0.189711,-0.901382
818260705,-0.724547,0.180446,-0.901201
818311203,-0.733724,0.180332,-0.901121
818361702,-0.706082,0.189474,-0.921253
818412204,-0.715159,0.226143,-0.911681
818462700,-0.724192,0.262637,-0.911872
818513199,-0.715024,0.272078,-0.902290
818563702,-0.705911,0.253887,-0.902038
818614197,-0.696660,0.244323,-0.931834
818664691,-0.687582,0.216981,-0.931477
818715181,-0.669273,0.208055,-0.931805
818765678,-0.669269,0.198728,-0.941601
818816175,-0.660117,0.189690,-0.941309
