Timestamp (us),X (a.u.),Y (a.u.),Z (a.u.)
1067716055,0.264696,-0.389153,-0.410695
1067765992,0.273798,-0.380301,-0.430638
1067815930,0.264706,-0.380327,-0.440538
1067865867,0.265000,-0.353236,-0.430840
1067915806,0.265029,-0.353180,-0.420983
1067965741,0.273895,-0.362460,-0.460480
1068015680,0.273927,-0.362410,-0.450701
1068065621,0.283029,-0.353559,-0.470638
1068115563,0.283088,-0.353448,-0.450936
1068165504,0.283138,-0.353319,-0.431020
1068215443,0.265034,-0.344343,-0.450690
1068265383,0.265015,-0.344421,-0.460826
1068315316,0.274102,-0.344385,-0.450780
1068365253,0.265075,-0.335467,-0.470754
1068415182,0.274194,-0.335381,-0.450925
1068465117,0.283300,-0.326535,-0.470936
1068515054,0.274284,-0.326371,-0.451000
1068564991,0.283297,-0.326530,-0.470863
1068614926,0.283323,-0.326468,-0.460941
1068664861,0.283383,-0.317515,-0.470865
1068714801,0.283330,-0.317638,-0.490705
1068764741,0.274320,-0.317484,-0.470921
1068814675,0.274209,-0.326565,-0.480917
1068864617,0.274204,-0.326555,-0.480769
1068914556,0.283323,-0.326468,-0.460941
1068964490,0.292425,-0.317618,-0.480875
1069014424,0.301589,-0.308660,-0.481188
1069064357,0.292788,-0.281588,-0.481323
1069114294,0.292961,-0.263561,-0.481324
1069214168,0.319808,-0.273306,-0.580630
1069264107,0.410332,-0.256505,-0.710728
1069314049,0.492540,-0.141110,-0.931026
1069363987,0.602012,-0.052062,-1.022009
1069413925,0.711971,0.073328,-1.063666
1069463859,0.768457,0.289131,-1.095922
1069513795,0.752011,0.442802,-1.027414
1069563732,0.581997,0.633740,-0.878735
1069613664,0.456068,0.680739,-0.659646
1069713545,0.121642,0.772897,-0.567577
1069763490,0.048460,0.657346,-0.367514
1069813440,-0.006091,0.604458,-0.217683
1069863384,-0.080045,0.460693,-0.205843
1069913328,-0.135959,0.299009,-0.164265
1069963275,-0.137547,0.154480,-0.222604
1070013224,-0.120782,0.036776,-0.301194
1070063168,-0.103887,-0.063031,-0.399716
1070113112,-0.077958,-0.162942,-0.508376
1070163057,0.021385,-0.181970,-0.598430
1070213007,0.075747,-0.155927,-0.718251
1070262954,0.148336,-0.120958,-0.838327
1070312902,0.202474,-0.130648,-0.908242
1070362851,0.202742,-0.103618,-0.908467
1070412798,0.256539,-0.184528,-0.839008
1070462741,0.274354,-0.238178,-0.759356
1070512684,0.256267,-0.237968,-0.739220
1070562631,0.256394,-0.220075,-0.759326
1070612568,0.256343,-0.220202,-0.779288
1070662507,0.219750,-0.264770,-0.728714
1070712446,0.210458,-0.300465,-0.678820
1070762385,0.183868,-0.246100,-0.649329
1070812322,0.165060,-0.300381,-0.698216
1070862262,0.146913,-0.309133,-0.668395
1070912199,0.047027,-0.326569,-0.647306
1070962144,0.001469,-0.353263,-0.626688
1071012093,0.038237,-0.290667,-0.677186
1071062045,0.091734,-0.354662,-0.786353
1071111991,0.191557,-0.319750,-0.896659
1071161927,0.291804,-0.239864,-1.017680
1071261813,0.593374,0.019382,-1.131819
1071311760,0.614984,0.361861,-1.105074
1071361702,0.504934,0.218687,-1.023265
1071411648,0.435752,0.438093,-0.568042
1071461590,0.211158,0.690562,-0.706914
1071511531,0.119121,0.573391,-0.774280
1071561470,0.127883,0.511030,-0.654888
1071611408,0.027917,0.466990,-0.564219
1071661348,-0.024719,0.568194,-0.266818
1071711292,-0.350521,0.659295,-0.343711
1071761237,-0.241899,0.658291,-0.424107
1071811172,-0.214419,0.702876,-0.484428
1071861114,-0.041080,0.792496,-0.437264
1071911058,0.249179,0.808881,-0.489913
1071960997,0.346652,0.653468,-0.777433
1072010936,0.351181,0.281975,-1.101792
1072060878,0.350592,0.227793,-1.121189
1072110814,0.712787,0.084001,-0.796018
1072160759,0.724936,-0.440563,-1.099583
1072210704,0.587316,-0.558054,-1.256026
1072260641,0.328146,-0.222249,-1.057574
1072310576,0.195755,0.130124,-0.999615
1072360507,0.085356,-0.049082,-0.917668
1072410445,0.065145,-0.300283,-0.756536
1072460378,0.045195,-0.454056,-0.864462
1072510311,0.000487,-0.425965,-0.725427
1072560244,-0.034116,-0.281074,-0.636753
1072610176,-0.025784,-0.344441,-0.676210
1072660108,-0.043664,-0.326154,-0.646407
1072710038,-0.052654,-0.325927,-0.616544
1072759975,-0.052747,-0.334943,-0.616563
1072809900,-0.052624,-0.325861,-0.606527
1072859833,-0.052713,-0.334871,-0.606452
1072909763,-0.052865,-0.352829,-0.596380
1072959694,-0.052862,-0.352823,-0.596289
1073009628,-0.061963,-0.361663,-0.576193
1073059558,-0.062119,-0.379627,-0.566210
1073109496,-0.071035,-0.361627,-0.576191
1073159432,-0.062033,-0.370623,-0.566372
1073209373,-0.061997,-0.361736,-0.586292
1073259308,-0.053100,-0.370978,-0.616170
1073309246,-0.043896,-0.344297,-0.666105
1073359192,-0.016471,-0.317509,-0.686344
1073409135,0.019955,-0.299721,-0.696882
1073459071,0.019851,-0.299963,-0.736468
1073509003,0.028908,-0.308834,-0.706821
1073558946,0.028845,-0.317783,-0.696822
1073608882,0.028874,-0.317716,-0.686794
1073658827,0.010900,-0.308449,-0.657120
1073758693,0.001961,-0.308104,-0.607494
1073808626,-0.007110,-0.316874,-0.577283
1073858559,-0.007043,-0.325520,-0.517751
1073908496,-0.016271,-0.352257,-0.477666
1073958431,-0.025389,-0.369934,-0.427879
1074008372,-0.043206,-0.351506,-0.378047
1074058303,-0.024981,-0.360185,-0.308863
1074108233,-0.051844,-0.332851,-0.279092
1074158171,-0.069995,-0.350408,-0.219133
