Timestamp (us),X (a.u.),Y (a.u.),Z (a.u.)
844779638,-1.193613,-0.316821,-0.065483
844829804,-1.193641,-0.316839,-0.065573
844879968,-1.193852,-0.335407,-0.035455
844930142,-1.184661,-0.344771,-0.035580
844980314,-1.175354,-0.344811,-0.035616
845030479,-1.184968,-0.372719,-0.035722
845080637,-1.166393,-0.372802,-0.025832
845130802,-1.166341,-0.372788,-0.035753
845180968,-1.157058,-0.372822,-0.025788
845231138,-1.166341,-0.372788,-0.035753
845281305,-1.156817,-0.354211,-0.045735
845331474,-1.175365,-0.344795,-0.025574
845381635,-1.175456,-0.354127,-0.035663
845431799,-1.184445,-0.326155,-0.045527
845481972,-1.193578,-0.316867,-0.095606
845532144,-1.184402,-0.326240,-0.095787
845582304,-1.193877,-0.344854,-0.115881
845632482,-1.184420,-0.335614,-0.145941
845682646,-1.184533,-0.344915,-0.135947
845732809,-1.193869,-0.344895,-0.136020
845782976,-1.175229,-0.344979,-0.146080
845833139,-1.175270,-0.345007,-0.146247
845883348,-1.184559,-0.344909,-0.125959
845933489,-1.184691,-0.354269,-0.136212
845983663,-1.184727,-0.363562,-0.146083
846033833,-1.194148,-0.372823,-0.136053
846084009,-1.175536,-0.372927,-0.146222
846134174,-1.184807,-0.372909,-0.166212
846184338,-1.184807,-0.372909,-0.166212
846234501,-1.184823,-0.372944,-0.176372
846284670,-1.184604,-0.354302,-0.176218
846334833,-1.184851,-0.372964,-0.176491
846385009,-1.184709,-0.363643,-0.186368
846435172,-1.194008,-0.363644,-0.206483
846485337,-1.193886,-0.354268,-0.186163
846535495,-1.203247,-0.354242,-0.176265
846585664,-1.193852,-0.354314,-0.216285
846635823,-1.184602,-0.363730,-0.256532
846685988,-1.184723,-0.373107,-0.276880
846736152,-1.175388,-0.373126,-0.276770
846786324,-1.175468,-0.382473,-0.296902
846836494,-1.175147,-0.354515,-0.296685
846886668,-1.175304,-0.363870,-0.297034
846936841,-1.175085,-0.345228,-0.296864
846987011,-1.175188,-0.354544,-0.296911
847037186,-1.184479,-0.354470,-0.286682
847087356,-1.165915,-0.354538,-0.266813
847137521,-1.175427,-0.373131,-0.266871
847187687,-1.166309,-0.391767,-0.256817
847237849,-1.138594,-0.410543,-0.267134
847288006,-1.138205,-0.382676,-0.327173
847338160,-1.137372,-0.317593,-0.417130
847388316,-1.126644,-0.196671,-0.507021
847438486,-1.124743,-0.019624,-0.476093
847488658,-1.131980,0.176148,-0.414892
847538814,-1.130329,0.344103,-0.243277
847588975,-1.100594,0.521198,-0.101757
847639130,-1.072125,0.595976,0.139526
847689291,-1.053510,0.614812,0.330343
847739453,-0.989328,0.549655,0.540651
847789627,-0.972375,0.409993,0.640337
847839795,-1.095305,0.214587,0.459005
847889958,-1.227656,-0.008999,0.096855
847940121,-1.247853,-0.158053,0.045959
847990285,-1.221039,-0.270155,-0.075271
848040444,-1.174924,-0.326509,-0.246476
848090608,-1.137581,-0.336274,-0.437495
848140767,-1.100011,-0.318007,-0.568221
848190934,-1.052175,-0.215908,-0.698206
848241105,-1.013171,-0.067173,-0.807914
848291275,-0.992462,0.119005,-0.847202
848341449,-0.981967,0.230774,-0.837069
848391621,-0.961818,0.370465,-0.816052
848441789,-0.951349,0.482309,-0.755267
848491957,-0.941008,0.584877,-0.664278
848542125,-0.959108,0.640982,-0.583708
848592291,-0.996414,0.641232,-0.533567
848642456,-1.043430,0.604255,-0.473307
848692628,-1.090444,0.567294,-0.392779
848742788,-1.128187,0.530316,-0.312565
848792962,-1.137756,0.511800,-0.262406
848843132,-1.137767,0.511815,-0.252363
848893312,-1.118980,0.520970,-0.302528
848943462,-1.071853,0.567238,-0.382897
848993629,-1.034270,0.594961,-0.433211
849043790,-0.977678,0.650460,-0.523229
849093948,-0.921683,0.659465,-0.583872
849144117,-0.883913,0.705855,-0.593593
849194290,-0.874395,0.724436,-0.613851
849244455,-0.893001,0.733959,-0.523234
849294624,-0.949026,0.724986,-0.452769
849344786,-1.005858,0.650909,-0.322542
849394956,-1.099480,0.604766,-0.292283
849445133,-1.146291,0.586422,-0.231928
849495295,-1.155697,0.577161,-0.211720
849545458,-1.155919,0.567973,-0.141638
849595621,-1.146742,0.558689,-0.081302
849645790,-1.146674,0.568051,-0.051128
849695957,-1.118560,0.586573,-0.051186
849746127,-1.080636,0.642212,-0.111255
849796303,-1.080248,0.670060,-0.171307
849846476,-1.042712,0.688384,-0.281954
849896661,-1.014644,0.688079,-0.392364
849946841,-0.995755,0.706535,-0.462725
849997020,-0.995937,0.687866,-0.493049
850047198,-1.023915,0.688054,-0.452863
850097372,-1.098943,0.651331,-0.291895
850147559,-1.145890,0.614256,-0.302023
850197745,-1.146139,0.595693,-0.251830
850247930,-1.174199,0.586533,-0.231752
850298110,-1.165083,0.567854,-0.231815
850348294,-1.165061,0.577277,-0.161473
850398474,-1.174418,0.577361,-0.141463
850448651,-1.165033,0.586661,-0.131461
850498829,-1.155810,0.577314,-0.111298
850549008,-1.127833,0.586566,-0.081280
850599192,-1.127729,0.595890,-0.071143
850649375,-1.127620,0.605168,-0.111419
850699557,-1.146238,0.595846,-0.141255
850850111,-1.155945,0.568053,-0.071130
850900295,-1.183914,0.568223,-0.040942
850950479,-1.174889,0.540214,-0.051118
851000655,-1.174996,0.530880,-0.071340
851050845,-1.174892,0.540205,-0.061204
851101027,-1.175005,0.530905,-0.051209
851151205,-1.165700,0.530856,-0.061333
851201391,-1.165826,0.521571,-0.041293
851251566,-1.156494,0.521510,-0.051329
851301751,-1.175119,0.521604,-0.041215
851351940,-1.193742,0.521707,-0.021018
851402114,-1.184435,0.521668,-0.021054
851452296,-1.156437,0.530887,-0.011113
851502477,-1.175292,0.512371,0.008913
851552659,-1.165755,0.530942,-0.001035
851602839,-1.165600,0.549618,0.019076
851653014,-1.146905,0.558887,0.039141
851703192,-1.137412,0.577527,0.079431
851753365,-1.137232,0.596182,0.089543
851803547,-1.118392,0.614690,0.049331
851853733,-1.118241,0.623960,0.029352
851903920,-1.117933,0.642461,-0.050858
851954109,-1.099045,0.660923,-0.111088
852004291,-1.080192,0.669970,-0.241730
852054475,-1.070668,0.679100,-0.332030
852104658,-1.052339,0.641582,-0.452895
852154839,-1.024906,0.585398,-0.563766
852205011,-0.997589,0.519923,-0.654475
852255187,-0.988908,0.454549,-0.735180
852305359,-0.933689,0.388967,-0.826254
852355542,-0.897393,0.295525,-0.907221
852405719,-0.833069,0.211267,-0.998460
852455895,-0.703562,0.126719,-1.099478
852506074,-0.639194,0.051849,-1.140653
852556259,-0.593454,-0.022909,-1.161302
852606441,-0.641604,-0.162344,-1.091338
852656622,-0.745784,-0.310790,-0.961459
852706799,-0.831786,-0.505908,-0.871261
852756980,-0.924195,-0.430799,-0.740105
852807151,-0.960720,-0.365388,-0.719411
852857328,-1.006391,-0.281247,-0.658427
852907496,-0.996867,-0.262693,-0.678576
852957665,-0.856318,-0.198354,-0.869437
853007844,-0.772977,-0.245441,-0.960693
853058017,-0.670984,-0.283168,-0.981367
853108197,-0.708658,-0.320196,-0.940918
853158363,-0.820354,-0.310256,-0.840028
853208543,-0.943231,-0.458516,-0.639740
853258723,-0.914266,-0.374906,-0.729549
853308897,-0.997801,-0.346522,-0.668960
853359086,-0.904131,-0.300409,-0.729073
853409271,-0.904273,-0.319166,-0.799728
853459454,-0.736272,-0.292131,-0.940667
853509640,-0.773512,-0.291991,-0.940843
853559824,-0.903775,-0.272547,-0.779268
853610007,-0.997949,-0.365231,-0.719266
853660184,-0.959295,-0.234971,-0.718878
853710366,-0.949826,-0.225793,-0.779267
853760551,-0.940673,-0.244473,-0.799063
853810735,-0.791278,-0.217406,-0.960316
853860919,-0.800574,-0.217382,-0.970322
853911101,-0.912510,-0.226028,-0.839387
853961278,-0.921251,-0.179463,-0.879130
854011448,-0.930284,-0.151430,-0.848829
854061625,-0.902278,-0.142244,-0.849187
854111808,-0.856049,-0.179843,-0.939949
854161987,-0.781538,-0.180212,-0.980247
854212166,-0.855779,-0.151827,-0.899478
854262341,-0.939836,-0.170026,-0.839288
854312520,-0.967509,-0.141862,-0.778629
854362693,-0.986054,-0.132442,-0.758559
854412868,-0.995432,-0.141723,-0.768340
854463051,-0.828226,-0.189248,-0.929743
854513238,-0.828146,-0.179902,-0.909614
854563425,-0.913114,-0.281939,-0.849713
854613606,-0.893569,-0.198167,-0.849211
854663784,-0.911606,-0.142195,-0.839254
854713965,-0.902187,-0.132912,-0.839096
854764143,-0.837237,-0.161295,-0.940087
854814324,-0.799886,-0.152146,-0.950067
854864506,-0.865306,-0.170383,-0.879300
854914682,-0.864794,-0.123803,-0.879063
854964863,-0.901509,-0.077067,-0.878681
855015041,-0.873946,-0.105097,-0.849106
855065218,-0.836816,-0.123998,-0.929376
855115399,-0.790519,-0.142856,-0.930446
855165579,-0.865376,-0.179795,-0.930028
855215760,-0.864776,-0.123861,-0.909498
855265934,-0.901937,-0.114341,-0.879175
855316115,-0.874262,-0.133051,-0.849397
855366288,-0.864867,-0.133192,-0.919589
855416468,-0.827854,-0.151966,-0.909785
855466644,-0.874114,-0.123796,-0.889528
855516821,-0.882867,-0.077216,-0.919232
855566994,-0.901675,-0.086331,-0.838859
855617171,-0.892137,-0.067789,-0.869082
855667340,-0.854982,-0.077268,-0.879014
855717504,-0.771206,-0.087091,-0.979809
855767676,-0.789609,-0.068376,-0.979476
855817834,-0.873805,-0.105255,-0.959259
855868000,-0.892020,-0.058444,-0.858541
855918173,-0.947403,-0.011590,-0.828256
855968336,-0.910333,-0.030441,-0.868669
856018507,-0.836258,-0.077480,-0.969302
856068674,-0.837070,-0.152001,-0.969517
856118841,-0.865230,-0.170468,-0.939385
856169011,-0.845823,-0.096016,-0.929356
856219180,-0.864016,-0.058689,-0.939136
856269351,-0.864483,-0.095876,-0.889115
856319517,-0.864267,-0.077260,-0.899062
856369686,-0.827367,-0.105381,-0.899814
856419869,-0.863956,-0.049331,-0.909119
856470031,-0.938829,-0.086241,-0.888625
856520211,-0.947963,-0.058090,-0.778136
856570383,-0.957294,-0.058001,-0.747838
856620559,-0.939109,-0.095353,-0.748370
856670722,-0.864760,-0.123849,-0.909185
856720893,-0.781299,-0.152172,-0.919851
856771058,-0.790697,-0.161464,-0.929905
856821222,-0.753093,-0.133765,-0.990160
856871399,-0.798918,-0.068361,-0.989815
856921567,-0.854762,-0.068125,-0.989598
856971743,-0.938476,-0.058355,-0.928646
857021907,-0.993999,-0.020733,-0.847913
857072087,-1.078115,-0.038831,-0.727324
857122263,-1.125209,-0.075700,-0.596785
857172440,-1.153573,-0.103326,-0.466172
857272777,-1.163312,-0.121612,-0.265413
857322949,-1.190960,-0.093501,-0.235040
857373125,-1.190826,-0.074797,-0.184802
857423288,-1.190669,-0.056123,-0.154638
857473452,-1.180792,-0.000204,-0.114215
857523633,-1.180414,0.037125,-0.073805
857573809,-1.180218,0.055789,-0.053583
857623978,-1.179617,0.111683,-0.053342
857674148,-1.160526,0.158215,-0.033134
857724326,-1.150794,0.195455,-0.022858
857774503,-1.141022,0.242043,0.007430
857824680,-1.121918,0.288575,0.027679
857874857,-1.121770,0.307283,0.077985
857925039,-1.093256,0.363092,0.098245
857975215,-1.055947,0.372294,0.128294
858025392,-1.056141,0.363088,0.198522
858075556,-1.046765,0.372411,0.228660
858125721,-1.027877,0.400315,0.248810
858175886,-0.999649,0.428157,0.258890
858226052,-0.971555,0.446707,0.278961
858276225,-0.962043,0.465300,0.279019
858326386,-0.952464,0.493265,0.319294
