Timestamp (us),X (a.u.),Y (a.u.),Z (a.u.)
5059334221,-0.845995,0.143718,-0.834016
5059384606,-0.846000,0.134350,-0.844213
5059434971,-0.864493,0.134484,-0.823580
5059485347,-0.845965,0.162272,-0.824045
5059535730,-0.845961,0.152905,-0.834117
5059586107,-0.855086,0.152433,-0.854255
5059636489,-0.845948,0.143540,-0.844063
5059686851,-0.855217,0.143604,-0.834059
5059737227,-0.855189,0.143607,-0.833687
5059787611,-0.864420,0.143491,-0.833855
5059837988,-0.846009,0.153085,-0.824066
5059888365,-0.855173,0.152792,-0.834036
5059938740,-0.845957,0.143538,-0.844189
5059989118,-0.855091,0.143065,-0.864455
5060039494,-0.855136,0.161795,-0.844814
5060089868,-0.845991,0.134351,-0.844087
5060140243,-0.864389,0.162045,-0.823884
5060190622,-0.855134,0.152612,-0.844209
5060241001,-0.855178,0.143424,-0.844234
5060291386,-0.845965,0.143537,-0.844315
5060341766,-0.846004,0.143717,-0.834140
5060392144,-0.855212,0.134236,-0.844133
5060442527,-0.846104,0.125525,-0.823640
5060492913,-0.855187,0.143422,-0.844360
5060543300,-0.845970,0.152904,-0.834241
5060593690,-0.855226,0.143602,-0.834184
5060644075,-0.845965,0.143537,-0.844315
5060694459,-0.855256,0.143784,-0.823885
5060744842,-0.836740,0.134285,-0.854341
5060795225,-0.818277,0.115596,-0.884951
5060845615,-0.790589,0.106392,-0.905305
5060895999,-0.772215,0.116165,-0.885353
5060946392,-0.781284,0.143432,-0.895751
5060996781,-0.799809,0.125012,-0.885081
5061047173,-0.818138,0.171080,-0.865080
5061097559,-0.817961,0.207648,-0.875658
5061147937,-0.827016,0.272205,-0.856067
5061198319,-0.790051,0.290852,-0.866637
5061248694,-0.817808,0.281686,-0.846074
5061299072,-0.799479,0.235617,-0.866078
5061349446,-0.808596,0.281799,-0.846155
5061399813,-0.808478,0.346653,-0.816461
5061450192,-0.827111,0.310034,-0.795424
5061500571,-0.928946,0.320489,-0.652098
5061550950,-1.077241,0.304081,-0.437039
5061601326,-1.133185,0.325195,-0.243440
5061651703,-1.170637,0.318250,-0.090382
5061702086,-1.189857,0.274969,0.073056
5061752471,-1.199475,0.230000,0.134682
5061802852,-1.190267,0.239481,0.144673
5061853235,-1.189861,0.284336,0.083128
5061903615,-1.208138,0.264657,0.022453
5061953998,-1.207947,0.235658,-0.058653
5062004385,-1.188996,0.224174,-0.201146
5062054770,-1.142195,0.221321,-0.394866
5062105150,-1.040046,0.228157,-0.599345
5062155535,-0.928758,0.263391,-0.763737
5062205932,-0.789901,0.355527,-0.847251
5062256323,-0.641617,0.540199,-0.901576
5062306703,-0.493892,0.521835,-1.004288
5062357085,-0.364700,0.559816,-1.026171
5062407458,-0.226234,0.635019,-1.028187
5062457840,-0.189248,0.784476,-0.918461
5062508218,-0.216756,0.830241,-0.908414
5062558588,-0.161510,0.812368,-0.918871
5062608968,-0.097023,0.803784,-0.929374
5062659348,-0.060144,0.841541,-0.899704
5062709723,-0.013963,0.822821,-0.950652
5062760104,-0.032563,0.711275,-1.010482
5062810471,-0.097425,0.590681,-1.028958
5062860837,-0.254351,0.506067,-1.026831
5062911211,-0.605495,0.347715,-0.899772
5062961584,-0.808755,0.254420,-0.835925
5063011953,-0.568042,0.392126,-1.012554
5063062329,-0.254402,0.440847,-1.076859
5063112708,0.031561,0.573537,-1.050237
5063163088,0.077789,0.704162,-0.970493
5063213461,-0.014180,0.702305,-1.010393
5063263837,-0.097185,0.645618,-1.039591
5063314215,-0.374275,0.505304,-0.984924
5063364594,-0.772143,0.181194,-0.845614
5063414973,-0.706479,0.419605,-0.920053
5063465362,-0.392637,0.448686,-1.055244
5063515737,-0.042002,0.609378,-1.049999
5063566111,0.123906,0.695192,-0.991291
5063616485,0.013514,0.786616,-0.940589
5063666862,-0.217065,0.654057,-0.998089
5063717245,-0.660952,0.329196,-0.868425
5063767622,-0.892215,0.171790,-0.773224
5063818003,-0.836141,0.383786,-0.776035
5063868380,-0.901155,0.254544,-0.763877
5063918757,-0.919910,0.171810,-0.752403
5063969130,-0.947678,0.153273,-0.742006
5064019501,-0.939297,-0.067114,-0.739657
5064069874,-0.902225,-0.039637,-0.770816
5064120252,-0.883493,-0.031483,-0.842321
5064170631,-0.827645,0.078729,-0.884729
5064221011,-0.780962,0.272775,-0.856596
5064271386,-0.725080,0.476299,-0.818602
5064321763,-0.697088,0.624547,-0.769696
5064372136,-0.641559,0.680164,-0.780848
5064422511,-0.576835,0.773350,-0.751672
5064472890,-0.484598,0.858097,-0.702729
5064523268,-0.355355,0.951906,-0.684414
5064573644,-0.152508,1.009727,-0.676715
5064624017,0.059308,1.087461,-0.587789
5064674396,0.096207,1.087754,-0.598375
5064724774,0.004084,1.039744,-0.647763
5064775148,-0.355810,1.103602,-0.421555
5064825518,-0.864167,0.768575,-0.301505
5064875891,-1.114280,0.519441,-0.184709
5064926271,-1.030272,0.674308,-0.319443
5064976646,-0.724719,0.895299,-0.507621
5065077393,-0.291602,1.208521,-0.250237
5065127772,-0.494232,1.102978,-0.359292
5065178147,-0.725243,1.009884,-0.264684
5065228519,-1.040328,0.650054,-0.125712
5065278887,-1.227143,0.126982,0.044478
5065329269,-1.188622,0.390629,-0.141944
5065379650,-0.965289,0.756902,-0.371854
5065430031,-0.623415,1.055612,-0.347432
5065480412,-0.605008,1.074612,-0.327544
5065530789,-0.817551,0.878699,-0.343924
5065581158,-1.058733,0.574896,-0.206183
5065631529,-1.245867,0.025154,0.015230
5065681898,-1.225888,0.242459,-0.180736
5065732279,-1.048568,0.561311,-0.460533
5065782659,-0.687978,0.952333,-0.427217
5065833034,-0.540636,1.085296,-0.287455
5065883411,-0.762198,0.897740,-0.344557
5065933791,-1.049395,0.555734,-0.256949
5065984175,-1.227490,0.006825,0.005093
5066034559,-1.188929,0.261108,-0.191438
5066084946,-1.058343,0.573095,-0.307960
5066135332,-0.808140,0.868544,-0.404969
5066185723,-0.642282,1.001342,-0.285616
5066236107,-0.854973,0.852843,-0.221167
5066286492,-1.152036,0.392176,-0.081238
5066336875,-1.199001,0.236857,0.002318
5066387261,-1.199265,0.219382,0.053416
5066437643,-1.208816,0.108655,0.034353
5066488025,-1.208940,0.100189,0.075140
5066538411,-1.218515,0.045673,0.116521
5066588801,-1.209476,0.009035,0.116872
5066639193,-1.227905,0.008992,0.127179
5066689581,-1.209510,-0.000152,0.116974
5066739973,-1.218567,0.036485,0.116636
5066790372,-1.209467,0.027772,0.137006
5066840766,-1.200208,0.046441,0.146880
5066891162,-1.200298,0.037433,0.157173
5066941554,-1.209680,0.019486,0.187956
5066991941,-1.200800,-0.053719,0.198884
5067042334,-1.201158,-0.108310,0.230075
5067092726,-1.210528,-0.154356,0.230632
5067143118,-1.173814,-0.209194,0.220685
5067193508,-1.164761,-0.236468,0.231111
5067243901,-1.155769,-0.263375,0.261859
5067294298,-1.155772,-0.291485,0.231668
5067344686,-1.155752,-0.300844,0.221565
5067395080,-1.137416,-0.328170,0.221679
5067445471,-1.155914,-0.337404,0.232115
5067495858,-1.137497,-0.355920,0.211837
5067546242,-1.128326,-0.383738,0.191735
5067596633,-1.119066,-0.402539,0.161328
5067647023,-1.110066,-0.466714,0.161918
5067697411,-1.110107,-0.494647,0.141891
5067747793,-1.091523,-0.504508,0.090959
5067798178,-1.100703,-0.523549,0.060722
5067848562,-1.100600,-0.514516,0.050438
5067898941,-1.109645,-0.487441,0.029869
5067949321,-1.127604,-0.433817,-0.041810
5067999697,-1.154552,-0.362650,-0.154343
5068050080,-1.163118,-0.300243,-0.256706
5068100464,-1.143993,-0.200194,-0.329059
5068150849,-1.143536,-0.109062,-0.370930
5068201235,-1.180486,-0.062320,-0.299882
5068251615,-1.208509,-0.079406,-0.207785
5068301997,-1.199461,-0.097310,-0.187348
5068352375,-1.190360,-0.143499,-0.207305
5068402755,-1.181198,-0.152578,-0.207318
5068453145,-1.190485,-0.161699,-0.196959
5068503527,-1.200082,-0.206857,-0.145509
5068553919,-1.200220,-0.243608,-0.145104
5068604311,-1.181668,-0.216004,-0.155774
5068654694,-1.181705,-0.234365,-0.155519
5068705079,-1.191077,-0.261870,-0.144982
5068755464,-1.172704,-0.280009,-0.144915
5068805846,-1.163607,-0.316835,-0.154795
5068856225,-1.154514,-0.344294,-0.154598
5068906611,-1.163904,-0.399514,-0.153857
5069007397,-1.109103,-0.462064,-0.092566
5069057784,-1.127589,-0.480871,-0.102418
