Timestamp (us),X (a.u.),Y (a.u.),Z (a.u.)
1187518131,-0.722154,0.654916,-0.866049
1187569884,-0.722285,0.627638,-0.855909
1187620457,-0.731261,0.645607,-0.876036
1187671027,-0.722272,0.645922,-0.856104
1187721596,-0.713076,0.636822,-0.856010
1187772169,-0.722076,0.627376,-0.875965
1187822736,-0.712974,0.636697,-0.866097
1187873302,-0.712974,0.636697,-0.866097
1187923870,-0.722373,0.655199,-0.846235
1187974431,-0.722277,0.645932,-0.856223
1188024998,-0.731475,0.645879,-0.856101
1188075576,-0.713176,0.646100,-0.846140
1188126155,-0.713063,0.655106,-0.856205
1188176728,-0.722383,0.655221,-0.846469
1188227310,-0.713065,0.645954,-0.855989
1188277889,-0.722271,0.655074,-0.856321
1188328463,-0.713162,0.646069,-0.845789
1188379034,-0.703966,0.664437,-0.846456
1188429604,-0.694549,0.664207,-0.866396
1188480172,-0.703864,0.664311,-0.856543
1188530744,-0.703752,0.664164,-0.866393
1188581315,-0.722249,0.673335,-0.856278
1188631880,-0.703751,0.645849,-0.865838
1188682459,-0.722047,0.654780,-0.876015
1188733030,-0.713070,0.645964,-0.856108
1188783604,-0.722255,0.664194,-0.856181
1188834177,-0.713164,0.664383,-0.846335
1188884769,-0.722276,0.655085,-0.856439
1188935351,-0.722379,0.646058,-0.846137
1188985940,-0.713057,0.664247,-0.856303
1189036534,-0.722379,0.646058,-0.846137
1189087113,-0.713166,0.655231,-0.846121
1189137701,-0.713063,0.655106,-0.856205
1189188291,-0.722271,0.655074,-0.856321
1189238881,-0.722164,0.654938,-0.866289
1189289477,-0.722047,0.654780,-0.876015
1189340063,-0.722378,0.655210,-0.846352
1189390644,-0.713175,0.655252,-0.846355
1189441230,-0.731480,0.645890,-0.856220
1189491809,-0.722389,0.646079,-0.846372
1189542383,-0.722049,0.645628,-0.875797
1189592967,-0.693751,0.571691,-0.945039
1189643547,-0.684548,0.571734,-0.945042
1189694124,-0.675872,0.590750,-0.895528
1189744702,-0.694253,0.627232,-0.895912
1189795281,-0.712989,0.627575,-0.866239
1189845858,-0.731286,0.609040,-0.875646
1189896430,-0.740182,0.572005,-0.904904
1189947003,-0.731102,0.572211,-0.895314
1189997573,-0.740398,0.599739,-0.885757
1190048143,-0.740175,0.590297,-0.905224
1190098718,-0.740196,0.590335,-0.905725
1190149285,-0.749491,0.572099,-0.894936
1190199855,-0.749514,0.562984,-0.895210
1190250429,-0.758711,0.562933,-0.895083
1190300999,-0.739995,0.562627,-0.925247
1190351576,-0.749401,0.562839,-0.905054
1190402150,-0.740312,0.553876,-0.894992
1190452724,-0.739889,0.553340,-0.934990
1190503298,-0.749099,0.535006,-0.934663
1190553872,-0.739925,0.507639,-0.934632
1190604443,-0.739921,0.498482,-0.934276
1190655021,-0.749033,0.489177,-0.944404
1190705602,-0.758142,0.470714,-0.954175
1190756186,-0.758136,0.470707,-0.954043
1190806778,-0.767244,0.452245,-0.963814
1190857368,-0.767358,0.443240,-0.953748
1190907952,-0.785776,0.434019,-0.953776
1190958535,-0.795098,0.415829,-0.943608
1191009123,-0.804282,0.434064,-0.943669
1191059710,-0.804395,0.415910,-0.933376
1191110294,-0.804527,0.397775,-0.923470
1191160881,-0.822707,0.406554,-0.943371
1191211470,-0.813516,0.397460,-0.943407
1191262076,-0.813850,0.388732,-0.913526
1191312650,-0.822732,0.379134,-0.943209
1191363237,-0.841130,0.369896,-0.942844
1191413812,-0.831826,0.360661,-0.952717
1191464386,-0.831826,0.360661,-0.952717
1191514969,-0.841155,0.333330,-0.942454
1191616116,-0.859702,0.315111,-0.932673
1191666685,-0.897153,0.297466,-0.872396
1191717253,-1.008555,0.307327,-0.782848
1191767833,-1.091915,0.133791,-0.740984
1191818400,-1.138726,-0.075867,-0.679009
1191868974,-1.139829,-0.321458,-0.586480
1191919548,-1.095490,-0.602716,-0.443866
1191970115,-1.061091,-0.791703,-0.232656
1192020688,-1.044736,-0.834724,-0.042735
1192071262,-1.101112,-0.787788,0.066455
1192121829,-1.052429,-0.818390,-0.182487
1192172408,-0.964752,-0.769284,-0.631686
1192222980,-0.818103,-0.850215,-0.581098
1192273561,-0.735009,-0.923395,-0.610343
1192324133,-0.649735,-0.807112,-0.830656
1192374706,-0.611777,-0.689477,-0.931739
1192425282,-0.657650,-0.644103,-0.942048
1192475851,-0.731255,-0.589645,-0.943135
1192526432,-0.739593,-0.416939,-1.014794
1192577006,-0.767614,-0.407360,-0.974719
1192627590,-0.906917,-0.378929,-0.855207
1192678173,-1.036897,-0.304900,-0.746395
1192728752,-1.121077,-0.303492,-0.616496
1192779331,-1.168542,-0.393349,-0.485948
1192829914,-1.215357,-0.429192,-0.415902
1192880490,-1.225554,-0.473718,-0.325695
1192931065,-1.217467,-0.563720,-0.225002
1192981637,-1.181445,-0.644858,-0.154340
1193032210,-1.117549,-0.744600,-0.113466
1193082783,-1.063664,-0.834112,0.007118
1193133351,-0.981969,-0.905518,0.107552
1193183927,-0.880703,-0.987499,0.098444
1193234506,-0.814260,-1.053703,-0.090280
1193285084,-0.839389,-0.993030,-0.320313
1193335660,-0.994299,-0.785244,-0.452047
1193386243,-1.121671,-0.531493,-0.574276
1193436816,-1.186953,-0.402575,-0.485845
1193487394,-1.159992,-0.548041,-0.434527
1193537965,-1.077962,-0.757112,-0.372564
1193588542,-1.005690,-0.855697,-0.251892
1193639120,-0.988394,-0.881709,-0.151971
1193689696,-1.053850,-0.844061,-0.052615
1193740269,-1.219276,-0.570536,-0.055449
1193790842,-1.345778,-0.180790,-0.259073
1193841418,-1.318092,-0.116662,-0.259687
1193891987,-1.262653,-0.400354,-0.296601
1193942561,-1.021887,-0.721408,-0.452852
1193993134,-0.731366,-1.071821,-0.100153
1194043706,-0.494505,-1.177380,0.120283
1194094273,-0.495136,-1.158301,0.179919
1194144843,-0.549392,-1.159782,0.090208
1194195415,-0.759581,-1.025402,-0.040793
1194245986,-1.060929,-0.746100,-0.243038
1194296562,-1.033814,-0.809451,-0.202560
1194347142,-0.710594,-1.065570,-0.319576
1194397724,-0.380098,-1.163669,-0.248864
1194448302,-0.302116,-1.202845,0.200281
1194498882,-0.465622,-1.188096,0.000733
1194549454,-0.659668,-1.087273,0.079489
1194600025,-1.007512,-0.825989,-0.082751
1194650604,-1.328527,-0.197482,-0.149152
1194701172,-1.346546,0.058129,-0.171814
1194751750,-1.355593,-0.161727,-0.199407
1194802334,-1.206660,-0.501759,-0.375361
1194852915,-0.986662,-0.838195,-0.312046
1194903489,-0.778566,-1.070556,0.009543
1194954065,-0.807108,-1.032869,0.098907
1195004641,-0.877472,-0.973282,-0.200857
1195055222,-1.117337,-0.708333,-0.133838
1195105800,-1.337067,-0.116072,-0.209903
1195156376,-1.159444,0.466825,-0.435509
1195206955,-1.224233,0.238252,-0.413109
1195257534,-1.298199,-0.109344,-0.399409
1195308107,-1.106283,-0.683166,-0.303600
1195358690,-0.888280,-0.971282,-0.051305
1195409281,-0.896915,-0.962808,-0.101193
1195459862,-0.893914,-0.930091,-0.380741
1195510441,-1.049727,-0.638810,-0.423622
1195561022,-1.215705,-0.309805,-0.377296
1195611604,-1.233836,-0.218745,-0.398202
1195662182,-1.178766,-0.437891,-0.395880
1195712759,-1.096043,-0.611189,-0.393997
1195763340,-1.114512,-0.565419,-0.384455
1195813920,-1.189400,-0.518429,-0.265368
1195864501,-1.189840,-0.536167,-0.225304
1195915084,-1.116504,-0.681793,-0.203769
1195965669,-1.034029,-0.827446,-0.182396
1196016247,-0.915216,-0.953906,-0.111270
1196066836,-0.814355,-1.035284,-0.080509
1196117413,-0.731907,-1.089404,-0.050090
1196167996,-0.639997,-1.116247,-0.039847
1196218583,-0.594321,-1.152149,-0.009554
1196269160,-0.593790,-1.152851,-0.059397
1196319739,-0.657117,-1.099725,-0.159713
1196370313,-0.702669,-1.054751,-0.200038
1196420897,-0.683635,-1.092009,-0.259393
1196471481,-0.435758,-1.181618,-0.208699
1196522059,-0.178213,-1.226000,-0.198329
1196572633,0.052404,-1.198169,-0.248503
1196623217,0.144685,-1.170637,-0.268843
1196673796,0.181802,-1.161688,-0.298772
1196724377,0.136317,-1.171723,-0.348495
1196774958,-0.055293,-1.119831,-0.498597
1196825531,-0.200888,-1.058583,-0.648851
1196876109,-0.292020,-0.996105,-0.729262
1196926694,-0.191336,-1.004057,-0.679156
1196977271,-0.044870,-1.057294,-0.608937
1197027854,0.082886,-1.091926,-0.508978
1197078440,0.192015,-1.126349,-0.388986
1197129013,0.137206,-1.154575,-0.428554
1197179593,-0.044453,-1.085286,-0.648611
1197230183,-0.382024,-0.843534,-0.910093
1197280760,-0.546184,-0.535143,-1.033248
1197331342,-0.518254,-0.535436,-1.063315
1197381916,-0.379514,-0.462479,-1.123969
1197432490,-0.233921,-0.706743,-0.981924
1197483063,-0.227144,-0.950623,-0.769543
1197533637,-0.273953,-1.023037,-0.699066
1197584209,-0.301675,-1.022987,-0.688891
1197634779,-0.491546,-0.762859,-0.990671
1197685346,-0.619939,-0.407234,-1.014790
1197735920,-0.685193,-0.552803,-0.942882
1197786499,-0.611798,-0.561357,-0.923135
1197837073,-0.696720,-0.806132,-0.741145
1197887647,-0.649114,-0.679810,-0.881857
1197938221,-0.769235,-0.597421,-0.832976
1197988801,-0.934483,-0.315065,-0.855880
1198039380,-0.933232,-0.033035,-0.958723
1198089961,-0.869288,-0.288288,-0.925846
1198140537,-0.767641,-0.480452,-0.973396
1198191116,-0.463338,-0.507324,-1.033424
1198241691,-0.237410,-0.940162,-0.669951
1198292272,-0.274204,-1.077616,-0.678541
1198342857,-0.273125,-0.895967,-0.770003
1198393433,-0.586299,-0.833030,-0.740784
1198444003,-0.862671,-0.632630,-0.702864
1198494582,-0.929114,-0.749347,-0.522314
1198545166,-0.695615,-0.761768,-0.841213
1198595745,-0.236302,-0.895851,-0.770342
1198646324,0.054602,-1.100314,-0.448854
1198696904,0.035179,-1.181446,-0.358277
1198747485,-0.010380,-1.154801,-0.398477
1198798066,-0.186012,-1.200364,-0.328160
1198848653,-0.634968,-0.976185,-0.499745
1198899239,-0.993556,-0.667191,-0.512979
1198949829,-0.937544,-0.768565,-0.591567
1199000408,-0.705054,-0.779854,-0.821309
1199050989,-0.538756,-0.789015,-0.880848
1199101577,-0.538631,-0.761726,-0.891109
1199152154,-0.502167,-0.797764,-0.861188
1199202740,-0.455162,-0.762209,-0.951347
1199253316,-0.464781,-0.743390,-0.911393
1199303895,-0.510338,-0.698438,-0.951745
1199354469,-0.472954,-0.644098,-1.002192
1199405052,-0.463613,-0.598469,-1.012512
1199455633,-0.491323,-0.589331,-1.002771
1199506214,-0.528015,-0.571341,-1.012783
1199556803,-0.620227,-0.516667,-0.993677
1199607389,-0.739777,-0.380088,-0.995100
1199657963,-0.841512,-0.187745,-0.937025
1199708548,-0.980639,-0.004055,-0.829622
1199759128,-1.083524,0.272065,-0.663073
1199809714,-1.075557,0.520732,-0.536123
1199860299,-0.974761,0.723080,-0.478046
1199910893,-0.845452,0.832887,-0.519420
1199961467,-0.854336,0.795826,-0.548714
1200012056,-0.929460,0.806548,-0.409285
1200062641,-0.993801,0.751249,-0.418589
1200113224,-1.075817,0.594272,-0.506906
1200163810,-1.121070,0.419250,-0.584665
1200214388,-1.139033,0.244778,-0.632484
1200264967,-1.157116,0.107022,-0.670984
1200315556,-1.157485,0.016013,-0.640009
1200366143,-1.176016,-0.011361,-0.629741
1200416723,-1.176203,-0.047801,-0.619732
1200467296,-1.185096,-0.084819,-0.649170
1200517873,-1.147934,-0.103332,-0.678618
1200568448,-1.138336,-0.112983,-0.718600
