Timestamp (us),X Axis (a.u.),Y Axis (a.u.),Z Axis (a.u.)
9145307198,-0.853229,-1.282021,-0.215417
9145357780,-0.811536,-1.281710,-0.215016
9145408382,-0.790417,-1.300299,-0.196600
9145458950,-0.800381,-1.347352,-0.141964
9145509528,-0.779362,-1.375847,-0.059188
9145560114,-0.716281,-1.413038,-0.003733
9145610696,-0.695472,-1.422782,0.060832
9145661280,-0.664034,-1.441642,0.116187
9145711863,-0.632909,-1.442016,0.180958
9145762444,-0.612088,-1.461155,0.254631
9145813033,-0.591375,-1.452282,0.319398
9145863615,-0.591268,-1.471300,0.365236
9145914195,-0.570605,-1.452472,0.356438
9145964778,-0.539258,-1.452070,0.338331
9146015361,-0.591186,-1.470878,0.319195
9146065945,-0.601609,-1.461230,0.273150
9146116529,-0.643262,-1.461360,0.254320
9146167126,-0.653609,-1.460932,0.198965
9146217726,-0.674347,-1.460654,0.152715
9146268330,-0.663899,-1.441534,0.106979
9146318931,-0.663757,-1.450577,0.079247
9146369525,-0.705751,-1.422667,0.042314
9146420121,-0.726736,-1.413120,-0.003835
9146470715,-0.779247,-1.366188,-0.095916
9146521305,-0.790257,-1.318893,-0.196814
9146571898,-0.811558,-1.253124,-0.288369
9146622493,-0.833696,-1.159377,-0.398071
9146673080,-0.824130,-1.075070,-0.461489
9146723678,-0.856136,-1.009759,-0.516313
9146774271,-0.888536,-0.944822,-0.534328
9146824864,-0.889232,-0.898383,-0.533811
9146875460,-0.920807,-0.880221,-0.515479
9146926052,-0.900071,-0.870512,-0.542812
9146976641,-0.857801,-0.888319,-0.588656
9147027240,-0.868151,-0.897777,-0.579652
9147077841,-0.868126,-0.888392,-0.588742
9147128440,-0.857324,-0.916351,-0.570532
9147179034,-0.847031,-0.916366,-0.561236
9147229632,-0.888638,-0.945088,-0.506701
9147280246,-0.876855,-1.057345,-0.415748
9147330826,-0.875381,-1.207897,-0.214802
9147381433,-0.842885,-1.359088,0.078542
9147432034,-0.696327,-1.434633,0.327794
9147482637,-0.623471,-1.463623,0.503181
9147533236,-0.592483,-1.445067,0.531323
9147583839,-0.613570,-1.436031,0.540431
9147634441,-0.666201,-1.408398,0.521811
9147685040,-0.759932,-1.408163,0.419587
9147735642,-0.811649,-1.397762,0.262618
9147786242,-0.843288,-1.350171,0.115481
9147836847,-0.895687,-1.302974,-0.004231
9147887452,-0.917158,-1.246702,-0.077488
9147938057,-0.906949,-1.218315,-0.123121
9147988655,-0.938593,-1.199984,-0.123222
9148039245,-0.885453,-1.255552,-0.095698
9148089834,-0.842971,-1.330676,0.023601
9148140428,-0.748711,-1.406383,0.244710
9148191021,-0.592187,-1.444517,0.476060
9148241617,-0.478498,-1.417893,0.698527
9148292205,-0.406555,-1.362811,0.828781
9148342801,-0.376477,-1.307594,0.903430
9148393395,-0.388050,-1.233926,0.968553
9148443980,-0.420444,-1.178650,0.987320
9148494564,-0.421179,-1.132461,1.015447
9148545152,-0.359247,-1.095437,1.080939
9148595741,-0.244658,-1.076314,1.119108
9148646335,-0.192071,-1.094393,1.110204
9148696923,-0.191340,-1.140744,1.100477
9148747516,-0.294559,-1.205769,1.015829
9148798102,-0.460635,-1.261920,0.921482
9148848688,-0.647380,-1.307976,0.725735
9148899267,-0.750889,-1.334819,0.531021
9148949856,-0.749506,-1.379491,0.346321
9149000441,-0.780340,-1.388299,0.272235
9149051026,-0.790896,-1.378422,0.198567
9149101613,-0.790295,-1.386808,0.106371
9149152206,-0.769111,-1.385937,0.032902
9149202800,-0.768592,-1.403895,-0.031768
9149253393,-0.716180,-1.403132,-0.068093
9149303987,-0.684225,-1.430554,-0.086510
9149354577,-0.641991,-1.467732,-0.049679
9149405169,-0.620977,-1.486585,-0.003636
9149455757,-0.568393,-1.523946,0.060924
9149506353,-0.537028,-1.542984,0.134696
9149556952,-0.495182,-1.571337,0.217677
9149607549,-0.422201,-1.580936,0.310381
9149658144,-0.359586,-1.580865,0.357037
9149708746,-0.338785,-1.590388,0.393984
9149759339,-0.328415,-1.580995,0.394185
9149809934,-0.328189,-1.590173,0.384867
9149860532,-0.349132,-1.580783,0.357139
9149911129,-0.370108,-1.581124,0.375352
9149961724,-0.338836,-1.580989,0.384873
9150012326,-0.349359,-1.581247,0.403189
9150062925,-0.349046,-1.599735,0.393773
9150113522,-0.369993,-1.590346,0.366045
9150164117,-0.370132,-1.581058,0.366148
9150214711,-0.380578,-1.580985,0.347632
9150265298,-0.380381,-1.580609,0.310791
9150315894,-0.390628,-1.589802,0.292167
9150366497,-0.411364,-1.599165,0.282649
9150417101,-0.401014,-1.589707,0.273646
9150467700,-0.411371,-1.589678,0.264332
9150518298,-0.400843,-1.589265,0.227600
9150568889,-0.421860,-1.580207,0.236706
9150619482,-0.421958,-1.580163,0.227501
9150670063,-0.421995,-1.580406,0.255127
9150720651,-0.422032,-1.580649,0.282751
9150771240,-0.422027,-1.590136,0.301069
9150821834,-0.411740,-1.590342,0.328803
9150872435,-0.411879,-1.581054,0.328906
9150923034,-0.422272,-1.581267,0.347214
9150973633,-0.401781,-1.562882,0.384461
9151024236,-0.391430,-1.563065,0.412190
9151074832,-0.360173,-1.563085,0.440124
9151125426,-0.360102,-1.572549,0.458438
9151176022,-0.349878,-1.563290,0.467860
9151226609,-0.349933,-1.563312,0.467867
9151277194,-0.318636,-1.553823,0.477473
9151327784,-0.328986,-1.563060,0.458862
9151378380,-0.318251,-1.581555,0.458758
9151428966,-0.349760,-1.572512,0.458554
9151479558,-0.349642,-1.581734,0.449248
9151530145,-0.349623,-1.572158,0.421717
9151580739,-0.338834,-1.590630,0.421606
9151631324,-0.349483,-1.581447,0.421613
9151681922,-0.339061,-1.581453,0.430925
9151732513,-0.328447,-1.590725,0.440127
9151783107,-0.339007,-1.581431,0.430919
9151833702,-0.338780,-1.590608,0.421600
9151884298,-0.359988,-1.572130,0.412399
9151934896,-0.360079,-1.572240,0.421615
9151985488,-0.349483,-1.581447,0.421613
9152036091,-0.338939,-1.581254,0.412501
9152086688,-0.349323,-1.590801,0.430713
