Timestamp (us),X (a.u.),Y (a.u.),Z (a.u.)
7034118817,-1.130860,-0.392860,-0.061402
7034168928,-1.121418,-0.383579,-0.071593
7034219041,-1.112296,-0.402291,-0.071725
7034269160,-1.112169,-0.392960,-0.081831
7034319280,-1.112105,-0.383655,-0.081928
7034369402,-1.112283,-0.402280,-0.071678
7034419523,-1.121405,-0.383569,-0.071547
7034469628,-1.121614,-0.402294,-0.092142
7034519743,-1.121269,-0.374305,-0.112355
7034569859,-1.111966,-0.374339,-0.102240
7034619976,-1.130723,-0.383571,-0.091962
7034670093,-1.130723,-0.383571,-0.091962
7034720218,-1.140050,-0.383531,-0.091925
7034770333,-1.121382,-0.383600,-0.091949
7034820445,-1.121397,-0.383636,-0.102251
7034870564,-1.121472,-0.392925,-0.091947
7034920689,-1.121243,-0.374284,-0.112251
7034970815,-1.121395,-0.383610,-0.091998
7035020928,-1.130517,-0.364898,-0.091867
7035071050,-1.130864,-0.392913,-0.081903
7035171281,-1.121395,-0.383610,-0.091998
7035271512,-1.112260,-0.402312,-0.092080
7035321633,-1.112172,-0.393012,-0.102334
7035371759,-1.112079,-0.383634,-0.081832
7035421878,-1.112185,-0.393023,-0.102385
7035471997,-1.121511,-0.392957,-0.092095
7035522118,-1.112275,-0.402349,-0.102382
7035622349,-1.121601,-0.402283,-0.092093
7035672467,-1.112363,-0.411648,-0.092127
7035722583,-1.112375,-0.411632,-0.081926
7035772709,-1.112387,-0.411643,-0.081974
7035822834,-1.112478,-0.420995,-0.092224
7035872957,-1.112386,-0.411617,-0.071725
7035923078,-1.103060,-0.411682,-0.082011
7035973196,-1.102970,-0.402357,-0.082011
7036023314,-1.102830,-0.393015,-0.092069
7036073432,-1.103047,-0.411671,-0.081963
7036123546,-1.112194,-0.392955,-0.071677
7036173654,-1.102853,-0.392984,-0.071667
7036223765,-1.112281,-0.402228,-0.051189
7036273883,-1.112206,-0.392965,-0.071724
7036323996,-1.112066,-0.383623,-0.081784
7036374111,-1.121496,-0.392920,-0.081795
7036474344,-1.121164,-0.364917,-0.091805
7036524463,-1.111916,-0.374324,-0.112287
7036574572,-1.121142,-0.364974,-0.122456
7036624682,-1.121246,-0.374336,-0.132760
7036674800,-1.111998,-0.383743,-0.153248
7036724917,-1.111985,-0.383732,-0.153190
7036775033,-1.130627,-0.383643,-0.153061
7036825149,-1.111973,-0.383722,-0.153133
7036875262,-1.112191,-0.402405,-0.153285
7036925368,-1.102876,-0.402455,-0.153379
7036975479,-1.112182,-0.402473,-0.184011
7037075689,-1.084641,-0.449313,-0.225038
7037125801,-1.075132,-0.430676,-0.214844
7037175917,-1.075224,-0.440028,-0.225094
7037226031,-1.065736,-0.430835,-0.286372
7037276143,-1.074709,-0.402822,-0.316725
7037326256,-1.074193,-0.365591,-0.398063
7037376369,-1.082527,-0.281619,-0.458805
7037426487,-1.062890,-0.197750,-0.509454
7037476604,-1.061600,-0.085793,-0.559889
7037526722,-1.051074,0.016791,-0.610289
7037576838,-1.031574,0.091352,-0.640703
7037626954,-1.030924,0.147339,-0.660694
7037677078,-1.011801,0.193956,-0.650703
7037727202,-1.020821,0.222035,-0.629873
7037777327,-1.029761,0.259464,-0.598927
7037827451,-1.038929,0.278238,-0.557997
7037877575,-1.057254,0.315744,-0.506947
7037927706,-1.075761,0.334586,-0.445469
7037977825,-1.084748,0.372039,-0.404622
7038027947,-1.103098,0.409593,-0.322811
7038078071,-1.102821,0.437682,-0.261221
7038128186,-1.112162,0.447203,-0.169389
7038178319,-1.112323,0.437944,-0.118425
7038228446,-1.131137,0.428775,-0.057141
7038278565,-1.150169,0.400939,0.003994
7038328685,-1.160120,0.354400,0.064913
7038378801,-1.170094,0.298493,0.115733
7038428906,-1.179979,0.251927,0.166558
7038479030,-1.199214,0.205357,0.186758
7038529155,-1.200053,0.130727,0.227212
7038579274,-1.200703,0.074756,0.257534
7038629391,-1.182793,0.009335,0.267330
7038679511,-1.183378,-0.046657,0.277248
7038729631,-1.174558,-0.093433,0.246368
7038779747,-1.175277,-0.158787,0.246035
7038829863,-1.166579,-0.214852,0.245710
7038879982,-1.157920,-0.280262,0.224948
7038930102,-1.158378,-0.327045,0.163489
7038980235,-1.140072,-0.364496,0.132658
7039030355,-1.140679,-0.420555,0.111952
7039080474,-1.112947,-0.448759,0.060697
7039130590,-1.103652,-0.458201,0.009644
7039180705,-1.113219,-0.486291,-0.061905
7039230823,-1.094543,-0.486428,-0.092629
7039280940,-1.094563,-0.495846,-0.153833
7039331051,-1.085395,-0.514620,-0.194768
7039381163,-1.075896,-0.505444,-0.266236
7039431284,-1.057092,-0.496221,-0.296791
7039481393,-1.038265,-0.487029,-0.347737
7039531504,-1.037923,-0.459122,-0.398773
7039581619,-1.046952,-0.440480,-0.459659
7039631732,-1.018513,-0.403317,-0.500376
7039681848,-1.018273,-0.384691,-0.530879
7039731963,-1.018022,-0.366082,-0.571583
7039782075,-1.008695,-0.366121,-0.571619
7039832192,-1.008604,-0.356744,-0.551062
7039882302,-1.017988,-0.356678,-0.520644
7039932418,-1.045891,-0.347218,-0.510392
7039982538,-1.055481,-0.365748,-0.449140
7040032654,-1.064957,-0.374956,-0.398056
7040082772,-1.092985,-0.374802,-0.367435
7040132883,-1.102335,-0.374705,-0.336714
7040182990,-1.112042,-0.402634,-0.296175
7040233106,-1.111834,-0.383909,-0.275528
7040283214,-1.111937,-0.393245,-0.275575
7040333326,-1.111951,-0.393282,-0.285925
7040433572,-1.084068,-0.412159,-0.357376
7040483684,-1.083944,-0.402907,-0.398307
7040533806,-1.055801,-0.393741,-0.439081
7040583919,-1.046198,-0.375175,-0.489925
7040634039,-1.027577,-0.384709,-0.561554
7040684162,-0.990096,-0.375624,-0.622857
7040734284,-0.943320,-0.366557,-0.663920
7040784403,-0.924495,-0.357367,-0.714824
7040834531,-0.896493,-0.357491,-0.725000
7040884656,-0.877781,-0.357647,-0.776070
7040934779,-0.859111,-0.357767,-0.796685
7040984900,-0.840422,-0.357893,-0.827360
7041035029,-0.821543,-0.339305,-0.837390
7041085153,-0.802644,-0.320783,-0.878320
7041135278,-0.784085,-0.330188,-0.878286
7041185406,-0.765396,-0.330314,-0.908957
7041235539,-0.746742,-0.330393,-0.909029
7041285668,-0.737409,-0.330457,-0.919425
7041335783,-0.728190,-0.339842,-0.919668
7041385908,-0.718948,-0.349224,-0.929793
7041436020,-0.718960,-0.349208,-0.919592
7041486124,-0.728276,-0.349149,-0.919236
7041536234,-0.756412,-0.358315,-0.878537
7041586351,-0.784291,-0.348860,-0.878380
7041636470,-0.831091,-0.357896,-0.816903
7041686585,-0.849822,-0.357734,-0.755780
7041736693,-0.905829,-0.357461,-0.725097
7041786812,-0.952525,-0.357161,-0.663585
7041836931,-0.990028,-0.366241,-0.592207
7041887053,-1.008649,-0.356733,-0.530881
7041937172,-1.055481,-0.365773,-0.459439
7041987296,-1.074410,-0.384248,-0.387957
7042037411,-1.111778,-0.384013,-0.336807
7042087535,-1.111960,-0.393214,-0.255176
7042137664,-1.140024,-0.393013,-0.193933
7042187801,-1.140276,-0.411623,-0.153224
7042237926,-1.131084,-0.420925,-0.112452
7042288044,-1.140482,-0.420819,-0.061463
7042338158,-1.131325,-0.430075,0.009895
7042388279,-1.131472,-0.439321,0.060874
7042438390,-1.112969,-0.448701,0.091324
7042488506,-1.113175,-0.457897,0.183073
7042538628,-1.094566,-0.457886,0.234003
7042588749,-1.085401,-0.467211,0.274712
7042638871,-1.085551,-0.476540,0.295070
7042688987,-1.066907,-0.476548,0.325590
7042739100,-1.048287,-0.476608,0.345927
7042789214,-1.048437,-0.485909,0.376495
7042839332,-1.039086,-0.485924,0.376432
7042889457,-1.038995,-0.476517,0.407043
7042939574,-1.029691,-0.476581,0.407042
7042989688,-1.020272,-0.467269,0.417253
7043039804,-1.029634,-0.467210,0.437710
7043089917,-1.020044,-0.448601,0.407130
7043140023,-1.057124,-0.429829,0.376789
7043190132,-1.066258,-0.411129,0.376934
7043240241,-1.093964,-0.392406,0.326126
7043290354,-1.121743,-0.373667,0.305939
7043340472,-1.130895,-0.364333,0.265216
7043390581,-1.149225,-0.336353,0.214409
7043440689,-1.157940,-0.289683,0.163710
7043490789,-1.176354,-0.270978,0.133278
7043540890,-1.194460,-0.224266,0.102990
7043590983,-1.203453,-0.196227,0.092993
7043641091,-1.212144,-0.140225,0.062691
7043691204,-1.211684,-0.102923,0.032315
7043741311,-1.211405,-0.074925,0.032392
7043791422,-1.229329,-0.009508,0.022596
7043841540,-1.228899,0.027787,-0.007855
7043891655,-1.237839,0.065203,0.012776
7043941778,-1.228180,0.093142,-0.007522
7043991896,-1.227610,0.139810,-0.017369
7044042013,-1.217978,0.167763,-0.027501
7044092131,-1.226875,0.205100,-0.057919
7044192363,-1.226552,0.233108,-0.057731
7044242479,-1.226331,0.251778,-0.057591
7044292589,-1.226300,0.251717,-0.098435
7044342696,-1.226274,0.251701,-0.108582
7044392806,-1.207711,0.242270,-0.118901
7044442917,-1.207626,0.251593,-0.129160
7044493028,-1.198367,0.242171,-0.159847
7044543146,-1.217417,0.204905,-0.159906
7044593263,-1.208193,0.195529,-0.159990
7044643389,-1.208375,0.176826,-0.180484
7044693506,-1.208938,0.130192,-0.150180
7044743626,-1.227927,0.102276,-0.140105
7044793755,-1.219175,0.046208,-0.150514
7044843878,-1.219585,0.008864,-0.150704
7044894003,-1.220327,-0.056457,-0.130637
7044944132,-1.211399,-0.093857,-0.141063
7044994263,-1.193364,-0.149973,-0.151677
7045044385,-1.193954,-0.205999,-0.162104
7045094514,-1.175893,-0.262125,-0.182861
7045144646,-1.157807,-0.318257,-0.213751
7045194761,-1.139784,-0.374387,-0.224441
7045244879,-1.102975,-0.421214,-0.224756
7045294996,-1.085110,-0.496084,-0.276354
7045345111,-1.048222,-0.533543,-0.256213
7045395234,-1.020924,-0.599061,-0.287257
7045445352,-0.974708,-0.636618,-0.287704
7045495475,-0.928542,-0.683496,-0.308371
7045545589,-0.891812,-0.739749,-0.349683
7045595707,-0.845381,-0.758618,-0.349959
7045645830,-0.799251,-0.805477,-0.350294
7045695937,-0.752888,-0.833729,-0.381216
7045746045,-0.734525,-0.861812,-0.391542
7045846262,-0.688087,-0.880771,-0.412490
7045896370,-0.660088,-0.880885,-0.422707
7045946470,-0.669553,-0.890135,-0.392116
7045996579,-0.669404,-0.880861,-0.432872
7046046682,-0.678727,-0.880802,-0.432742
7046096796,-0.688059,-0.880782,-0.432800
7046146910,-0.715745,-0.852586,-0.411963
7046197015,-0.734325,-0.843159,-0.391536
7046247131,-0.790003,-0.814884,-0.370777
7046297248,-0.836251,-0.777312,-0.350007
7046347368,-0.873401,-0.758420,-0.308968
7046397490,-0.910219,-0.711551,-0.288187
7046447603,-0.947129,-0.674034,-0.277653
7046497709,-0.993057,-0.608470,-0.266939
7046547810,-1.020719,-0.580389,-0.287162
7046597918,-1.038986,-0.542905,-0.256226
7046648017,-1.057194,-0.505472,-0.266018
7046698123,-1.084775,-0.467996,-0.255523
7046748228,-1.112322,-0.430566,-0.275618
7046798333,-1.102656,-0.393222,-0.234813
7046848445,-1.121297,-0.393132,-0.234672
7046898550,-1.139819,-0.374340,-0.193838
7046948664,-1.149270,-0.383580,-0.163188
7046998771,-1.139977,-0.383573,-0.132625
7047048893,-1.149417,-0.392828,-0.112185
7047099003,-1.158482,-0.364718,-0.071214
7047149119,-1.158507,-0.364713,-0.061061
7047199228,-1.167552,-0.336660,-0.050726
7047249337,-1.176582,-0.308596,-0.040347
7047299444,-1.185924,-0.308566,-0.040353
7047349550,-1.185573,-0.280531,-0.040083
7047399662,-1.185405,-0.261836,-0.019631
7047449776,-1.194603,-0.252469,-0.029706
7047499882,-1.185300,-0.252477,-0.009346
7047549993,-1.175893,-0.243149,0.011061
7047600098,-1.194570,-0.243039,0.031530
7047650199,-1.185498,-0.261712,0.061965
7047700305,-1.185612,-0.271032,0.072117
7047750416,-1.185612,-0.271032,0.072117
7047800529,-1.176516,-0.289737,0.082160
7047850643,-1.185717,-0.280392,0.061841
7047900751,-1.176561,-0.299151,0.031107
7047950860,-1.176612,-0.308500,0.010729
7048000965,-1.176680,-0.317883,-0.019913
7048051074,-1.167220,-0.308682,-0.070986
7048151288,-1.167226,-0.318093,-0.132129
7048201396,-1.157955,-0.327531,-0.173006
7048251505,-1.158041,-0.336973,-0.224245
7048351723,-1.120830,-0.355892,-0.295748
7048401828,-1.111581,-0.365273,-0.305954
7048451942,-1.102437,-0.384041,-0.336762
7048502044,-1.093622,-0.430707,-0.316478
7048602260,-1.093695,-0.430721,-0.296390
7048652371,-1.093796,-0.440004,-0.275885
7048702480,-1.103272,-0.449238,-0.235098
7048752583,-1.103295,-0.449207,-0.214699
7048802689,-1.112463,-0.430433,-0.173770
7048852794,-1.112830,-0.458391,-0.133169
7048902890,-1.103524,-0.458344,-0.092303
7048952986,-1.094462,-0.477033,-0.061930
7049003081,-1.113264,-0.486201,-0.010862
7049053180,-1.094644,-0.486233,0.019665
7049103278,-1.112992,-0.458173,0.009644
7049153373,-1.112875,-0.448798,0.019961
7049203474,-1.122102,-0.439477,-0.000425
7049253578,-1.140378,-0.411456,-0.051171
7049303679,-1.130746,-0.383540,-0.071557
7049353786,-1.149200,-0.374171,-0.122289
7049403894,-1.158543,-0.374168,-0.132560
7049454001,-1.148927,-0.355619,-0.193644
7049504112,-1.139590,-0.355699,-0.214145
7049554223,-1.148774,-0.346294,-0.213864
7049604336,-1.139579,-0.355715,-0.224346
7049654443,-1.139449,-0.346359,-0.224164
7049704558,-1.139513,-0.355690,-0.234274
7049754673,-1.139437,-0.346375,-0.234363
7049804789,-1.130250,-0.355729,-0.214116
7049854907,-1.130339,-0.365054,-0.214097
7049905028,-1.130379,-0.365085,-0.214294
7049955145,-1.130388,-0.365044,-0.193827
7050005261,-1.149041,-0.364939,-0.183492
7050055373,-1.139853,-0.374294,-0.163235
7050105486,-1.149202,-0.374197,-0.132542
7050155600,-1.158424,-0.364796,-0.122205
7050205715,-1.149136,-0.364840,-0.112147
7050255833,-1.158337,-0.355496,-0.132465
7050305944,-1.148688,-0.327517,-0.132304
7050356055,-1.148803,-0.336838,-0.122152
7050406159,-1.158244,-0.346119,-0.111964
7050456270,-1.167546,-0.346085,-0.122074
7050506377,-1.158244,-0.346119,-0.111964
7050556484,-1.139615,-0.346192,-0.101887
7050606596,-1.149029,-0.355453,-0.091599
7050656706,-1.158370,-0.355424,-0.091612
7050706817,-1.148928,-0.346143,-0.101800
7050756928,-1.158288,-0.346031,-0.060921
